 XGSM    YGSM   ZGSM    R    BXGSM   BYGSM   BZGSM   B
 [Re]    [Re]   [Re]   [Re]  [nT]    [nT]   [nT]   [nT]
  -0.310   0.328   0.892   1.000    14994.27   -27146.52   -43195.73    53175.49
  -0.313   0.333   0.901   1.010    14637.23   -26586.38   -41970.88    51794.19
  -0.316   0.338   0.909   1.020    14289.11   -26039.33   -40785.20    50454.51
  -0.319   0.343   0.917   1.029    13949.84   -25505.17   -39637.52    49155.31
  -0.321   0.348   0.925   1.039    13619.33   -24983.69   -38526.65    47895.44
  -0.324   0.354   0.933   1.049    13297.43   -24474.66   -37451.44    46673.77
  -0.327   0.359   0.941   1.059    12984.03   -23977.83   -36410.75    45489.16
  -0.330   0.364   0.949   1.069    12678.95   -23492.95   -35403.45    44340.49
  -0.333   0.369   0.957   1.078    12382.05   -23019.78   -34428.44    43226.64
  -0.336   0.375   0.965   1.088    12093.14   -22558.06   -33484.64    42146.55
  -0.339   0.380   0.973   1.098    11812.04   -22107.54   -32571.02    41099.13
  -0.342   0.385   0.981   1.108    11538.59   -21667.94   -31686.54    40083.36
  -0.344   0.391   0.988   1.117    11272.58   -21239.02   -30830.21    39098.20
  -0.347   0.396   0.996   1.127    11013.84   -20820.51   -30001.08    38142.67
  -0.350   0.402   1.004   1.137    10762.18   -20412.16   -29198.20    37215.79
  -0.353   0.407   1.012   1.147    10517.40   -20013.72   -28420.66    36316.64
  -0.356   0.413   1.020   1.156    10279.33   -19624.93   -27667.60    35444.30
  -0.359   0.418   1.028   1.166    10047.78   -19245.55   -26938.16    34597.89
  -0.362   0.424   1.035   1.176     9822.56   -18875.34   -26231.53    33776.53
  -0.365   0.430   1.043   1.186     9603.51   -18514.05   -25546.91    32979.41
  -0.368   0.435   1.051   1.195     9390.43   -18161.46   -24883.53    32205.72
  -0.371   0.441   1.059   1.205     9183.16   -17817.33   -24240.66    31454.69
  -0.373   0.447   1.066   1.215     8981.54   -17481.44   -23617.58    30725.54
  -0.376   0.452   1.074   1.225     8785.39   -17153.58   -23013.61    30017.57
  -0.379   0.458   1.082   1.234     8594.55   -16833.52   -22428.09    29330.07
  -0.382   0.464   1.089   1.244     8408.86   -16521.06   -21860.38    28662.35
  -0.385   0.469   1.097   1.254     8228.18   -16215.99   -21309.85    28013.76
  -0.388   0.475   1.105   1.264     8052.34   -15918.11   -20775.93    27383.68
  -0.391   0.481   1.112   1.273     7881.21   -15627.24   -20258.03    26771.48
  -0.394   0.487   1.120   1.283     7714.65   -15343.18   -19755.61    26176.57
  -0.397   0.493   1.127   1.293     7552.51   -15065.74   -19268.13    25598.40
  -0.400   0.499   1.135   1.302     7394.67   -14794.76   -18795.09    25036.40
  -0.403   0.505   1.142   1.312     7240.99   -14530.04   -18335.99    24490.05
  -0.406   0.511   1.150   1.322     7091.34   -14271.44   -17890.37    23958.85
  -0.409   0.517   1.157   1.332     6945.62   -14018.77   -17457.76    23442.29
  -0.412   0.523   1.165   1.341     6803.69   -13771.89   -17037.72    22939.90
  -0.415   0.529   1.172   1.351     6665.44   -13530.63   -16629.84    22451.22
  -0.418   0.535   1.179   1.361     6530.76   -13294.84   -16233.70    21975.82
  -0.421   0.541   1.187   1.370     6399.55   -13064.38   -15848.91    21513.26
  -0.424   0.547   1.194   1.380     6271.70   -12839.11   -15475.09    21063.13
  -0.427   0.553   1.201   1.390     6147.11   -12618.88   -15111.89    20625.04
  -0.430   0.559   1.209   1.399     6025.69   -12403.57   -14758.95    20198.61
  -0.433   0.565   1.216   1.409     5907.33   -12193.03   -14415.93    19783.47
  -0.436   0.571   1.223   1.419     5791.94   -11987.15   -14082.51    19379.25
  -0.439   0.577   1.231   1.428     5679.45   -11785.81   -13758.37    18985.63
  -0.442   0.584   1.238   1.438     5569.75   -11588.87   -13443.21    18602.26
  -0.445   0.590   1.245   1.448     5462.78   -11396.23   -13136.75    18228.83
  -0.448   0.596   1.252   1.457     5358.45   -11207.77   -12838.69    17865.03
  -0.451   0.603   1.259   1.467     5256.68   -11023.39   -12548.78    17510.56
  -0.454   0.609   1.267   1.477     5157.39   -10842.98   -12266.74    17165.14
  -0.457   0.615   1.274   1.486     5060.52   -10666.43   -11992.34    16828.48
  -0.460   0.621   1.281   1.496     4966.00   -10493.64   -11725.32    16500.33
  -0.463   0.628   1.288   1.506     4873.75   -10324.52   -11465.46    16180.42
  -0.466   0.634   1.295   1.515     4783.71   -10158.98   -11212.53    15868.51
  -0.469   0.641   1.302   1.525     4695.82    -9996.92   -10966.30    15564.35
  -0.472   0.647   1.309   1.535     4610.02    -9838.25   -10726.58    15267.71
  -0.475   0.654   1.316   1.544     4526.24    -9682.89   -10493.17    14978.37
  -0.478   0.660   1.323   1.554     4444.43    -9530.74   -10265.85    14696.12
  -0.481   0.667   1.330   1.563     4364.54    -9381.75   -10044.46    14420.73
  -0.484   0.673   1.337   1.573     4286.50    -9235.81    -9828.80    14152.02
  -0.487   0.680   1.344   1.583     4210.27    -9092.86    -9618.71    13889.78
  -0.490   0.686   1.351   1.592     4135.80    -8952.82    -9414.01    13633.83
  -0.493   0.693   1.358   1.602     4063.03    -8815.61    -9214.53    13383.98
  -0.496   0.699   1.365   1.612     3991.92    -8681.18    -9020.13    13140.06
  -0.499   0.706   1.372   1.621     3922.43    -8549.45    -8830.66    12901.90
  -0.502   0.713   1.378   1.631     3854.51    -8420.35    -8645.95    12669.33
  -0.505   0.719   1.385   1.640     3788.11    -8293.81    -8465.88    12442.20
  -0.508   0.726   1.392   1.650     3723.20    -8169.79    -8290.30    12220.34
  -0.511   0.733   1.399   1.660     3659.73    -8048.21    -8119.08    12003.62
  -0.514   0.739   1.406   1.669     3597.67    -7929.01    -7952.10    11791.88
  -0.517   0.746   1.412   1.679     3536.98    -7812.15    -7789.23    11584.99
  -0.520   0.753   1.419   1.688     3477.61    -7697.56    -7630.35    11382.81
  -0.523   0.760   1.426   1.698     3419.55    -7585.18    -7475.35    11185.22
  -0.526   0.766   1.432   1.708     3362.74    -7474.97    -7324.11    10992.08
  -0.529   0.773   1.439   1.717     3307.16    -7366.88    -7176.53    10803.27
  -0.532   0.780   1.446   1.727     3252.78    -7260.84    -7032.50    10618.68
  -0.536   0.787   1.452   1.736     3199.56    -7156.83    -6891.92    10438.19
  -0.539   0.794   1.459   1.746     3147.47    -7054.78    -6754.69    10261.69
  -0.542   0.801   1.465   1.755     3096.48    -6954.66    -6620.73    10089.08
  -0.545   0.807   1.472   1.765     3046.58    -6856.41    -6489.93     9920.24
  -0.548   0.814   1.478   1.775     2997.72    -6760.00    -6362.21     9755.08
  -0.551   0.821   1.485   1.784     2949.88    -6665.37    -6237.48     9593.49
  -0.554   0.828   1.491   1.794     2903.03    -6572.50    -6115.66     9435.40
  -0.557   0.835   1.498   1.803     2857.15    -6481.34    -5996.68     9280.69
  -0.560   0.842   1.504   1.813     2812.22    -6391.86    -5880.44     9129.29
  -0.563   0.849   1.511   1.822     2768.21    -6304.00    -5766.89     8981.11
  -0.566   0.856   1.517   1.832     2725.10    -6217.74    -5655.94     8836.07
  -0.569   0.863   1.524   1.841     2682.86    -6133.05    -5547.52     8694.08
  -0.572   0.870   1.530   1.851     2641.48    -6049.88    -5441.56     8555.06
  -0.576   0.877   1.536   1.861     2600.92    -5968.20    -5338.01     8418.94
  -0.579   0.885   1.543   1.870     2561.18    -5887.98    -5236.79     8285.65
  -0.582   0.892   1.549   1.880     2522.24    -5809.18    -5137.85     8155.10
  -0.585   0.899   1.555   1.889     2484.06    -5731.78    -5041.11     8027.25
  -0.588   0.906   1.562   1.899     2446.64    -5655.75    -4946.54     7902.01
  -0.591   0.913   1.568   1.908     2409.95    -5581.05    -4854.05     7779.32
  -0.594   0.920   1.574   1.918     2373.98    -5507.65    -4763.61     7659.11
  -0.597   0.928   1.580   1.927     2338.71    -5435.53    -4675.17     7541.34
  -0.600   0.935   1.586   1.937     2304.12    -5364.66    -4588.65     7425.92
  -0.603   0.942   1.593   1.946     2270.21    -5295.02    -4504.03     7312.82
  -0.606   0.949   1.599   1.956     2236.94    -5226.57    -4421.24     7201.96
  -0.610   0.956   1.605   1.965     2204.31    -5159.29    -4340.25     7093.30
  -0.613   0.964   1.611   1.975     2172.30    -5093.16    -4261.00     6986.79
  -0.616   0.971   1.617   1.984     2140.89    -5028.14    -4183.45     6882.36
  -0.619   0.978   1.623   1.994     2110.08    -4964.23    -4107.56     6779.98
  -0.622   0.986   1.629   2.003     2079.85    -4901.39    -4033.29     6679.58
  -0.625   0.993   1.635   2.013     2050.18    -4839.61    -3960.59     6581.13
  -0.628   1.000   1.641   2.022     2021.07    -4778.85    -3889.43     6484.58
  -0.631   1.008   1.647   2.032     1992.49    -4719.10    -3819.77     6389.88
  -0.635   1.015   1.653   2.041     1964.44    -4660.35    -3751.56     6296.99
  -0.638   1.023   1.659   2.051     1936.91    -4602.55    -3684.79     6205.87
  -0.641   1.030   1.665   2.060     1909.88    -4545.71    -3619.40     6116.47
  -0.644   1.037   1.671   2.070     1883.34    -4489.80    -3555.37     6028.76
  -0.647   1.045   1.677   2.079     1857.28    -4434.79    -3492.66     5942.69
  -0.650   1.052   1.683   2.088     1831.70    -4380.68    -3431.24     5858.23
  -0.653   1.060   1.689   2.098     1806.57    -4327.44    -3371.08     5775.34
  -0.656   1.067   1.694   2.107     1781.90    -4275.06    -3312.14     5693.99
  -0.660   1.075   1.700   2.117     1757.66    -4223.51    -3254.41     5614.14
  -0.663   1.082   1.706   2.126     1733.85    -4172.79    -3197.85     5535.76
  -0.666   1.090   1.712   2.136     1710.47    -4122.87    -3142.43     5458.81
  -0.669   1.098   1.717   2.145     1687.49    -4073.74    -3088.12     5383.26
  -0.672   1.105   1.723   2.155     1664.92    -4025.39    -3034.90     5309.08
  -0.675   1.113   1.729   2.164     1642.74    -3977.79    -2982.75     5236.24
  -0.678   1.120   1.735   2.173     1620.95    -3930.94    -2931.63     5164.71
  -0.681   1.128   1.740   2.183     1599.54    -3884.82    -2881.53     5094.46
  -0.685   1.136   1.746   2.192     1578.49    -3839.41    -2832.42     5025.46
  -0.688   1.143   1.752   2.202     1557.81    -3794.70    -2784.27     4957.69
  -0.691   1.151   1.757   2.211     1537.48    -3750.69    -2737.07     4891.12
  -0.694   1.159   1.763   2.221     1517.49    -3707.34    -2690.79     4825.72
  -0.697   1.166   1.768   2.230     1497.84    -3664.66    -2645.42     4761.46
  -0.700   1.174   1.774   2.239     1478.53    -3622.63    -2600.92     4698.33
  -0.703   1.182   1.779   2.249     1459.54    -3581.23    -2557.29     4636.29
  -0.707   1.189   1.785   2.258     1440.87    -3540.46    -2514.49     4575.33
  -0.710   1.197   1.790   2.268     1422.51    -3500.30    -2472.52     4515.42
  -0.713   1.205   1.796   2.277     1404.46    -3460.75    -2431.36     4456.54
  -0.716   1.213   1.801   2.286     1386.70    -3421.78    -2390.97     4398.67
  -0.719   1.220   1.807   2.296     1369.24    -3383.39    -2351.36     4341.78
  -0.722   1.228   1.812   2.305     1352.06    -3345.57    -2312.50     4285.86
  -0.726   1.236   1.818   2.315     1335.17    -3308.31    -2274.37     4230.88
  -0.729   1.244   1.823   2.324     1318.55    -3271.60    -2236.96     4176.83
  -0.732   1.252   1.828   2.333     1302.20    -3235.42    -2200.25     4123.69
  -0.735   1.260   1.834   2.343     1286.11    -3199.77    -2164.23     4071.43
  -0.738   1.267   1.839   2.352     1270.28    -3164.64    -2128.88     4020.04
  -0.741   1.275   1.844   2.362     1254.71    -3130.02    -2094.19     3969.51
  -0.744   1.283   1.849   2.371     1239.39    -3095.90    -2060.14     3919.80
  -0.748   1.291   1.855   2.380     1224.31    -3062.27    -2026.72     3870.92
  -0.751   1.299   1.860   2.390     1209.47    -3029.12    -1993.91     3822.84
  -0.754   1.307   1.865   2.399     1194.86    -2996.44    -1961.71     3775.54
  -0.757   1.315   1.870   2.408     1180.49    -2964.23    -1930.10     3729.00
  -0.760   1.323   1.875   2.418     1166.33    -2932.47    -1899.06     3683.23
  -0.763   1.331   1.881   2.427     1152.41    -2901.17    -1868.58     3638.19
  -0.767   1.339   1.886   2.436     1138.69    -2870.30    -1838.66     3593.87
  -0.770   1.347   1.891   2.446     1125.19    -2839.86    -1809.28     3550.27
  -0.773   1.355   1.896   2.455     1111.90    -2809.86    -1780.43     3507.35
  -0.776   1.363   1.901   2.464     1098.81    -2780.26    -1752.09     3465.12
  -0.779   1.371   1.906   2.474     1085.93    -2751.08    -1724.27     3423.56
  -0.782   1.379   1.911   2.483     1073.24    -2722.30    -1696.94     3382.66
  -0.786   1.387   1.916   2.492     1060.74    -2693.92    -1670.09     3342.39
  -0.789   1.395   1.921   2.502     1048.44    -2665.93    -1643.72     3302.76
  -0.792   1.403   1.926   2.511     1036.32    -2638.32    -1617.82     3263.74
  -0.795   1.411   1.931   2.520     1024.38    -2611.08    -1592.37     3225.33
  -0.798   1.419   1.936   2.530     1012.62    -2584.22    -1567.38     3187.52
  -0.802   1.427   1.941   2.539     1001.04    -2557.72    -1542.82     3150.28
  -0.805   1.436   1.946   2.548      989.63    -2531.58    -1518.68     3113.62
  -0.808   1.444   1.951   2.558      978.39    -2505.78    -1494.97     3077.52
  -0.811   1.452   1.955   2.567      967.32    -2480.34    -1471.67     3041.97
  -0.814   1.460   1.960   2.576      956.40    -2455.23    -1448.78     3006.96
  -0.817   1.468   1.965   2.586      945.65    -2430.46    -1426.28     2972.49
  -0.821   1.476   1.970   2.595      935.06    -2406.01    -1404.17     2938.53
  -0.824   1.485   1.975   2.604      924.62    -2381.89    -1382.44     2905.08
  -0.827   1.493   1.979   2.613      914.34    -2358.09    -1361.08     2872.13
  -0.830   1.501   1.984   2.623      904.20    -2334.60    -1340.08     2839.67
  -0.833   1.509   1.989   2.632      894.21    -2311.41    -1319.44     2807.70
  -0.837   1.517   1.993   2.641      884.36    -2288.53    -1299.16     2776.20
  -0.840   1.526   1.998   2.651      874.65    -2265.95    -1279.21     2745.16
  -0.843   1.534   2.003   2.660      865.09    -2243.66    -1259.60     2714.59
  -0.846   1.542   2.007   2.669      855.66    -2221.65    -1240.33     2684.46
  -0.849   1.550   2.012   2.678      846.36    -2199.93    -1221.38     2654.77
  -0.852   1.559   2.017   2.688      837.19    -2178.49    -1202.74     2625.51
  -0.856   1.567   2.021   2.697      828.16    -2157.32    -1184.42     2596.68
  -0.859   1.575   2.026   2.706      819.25    -2136.42    -1166.40     2568.26
  -0.862   1.584   2.030   2.715      810.46    -2115.79    -1148.68     2540.25
  -0.865   1.592   2.035   2.725      801.80    -2095.42    -1131.25     2512.65
  -0.868   1.600   2.039   2.734      793.26    -2075.30    -1114.12     2485.44
  -0.872   1.609   2.044   2.743      784.84    -2055.44    -1097.26     2458.62
  -0.875   1.617   2.048   2.752      776.53    -2035.83    -1080.68     2432.18
  -0.878   1.625   2.053   2.762      768.34    -2016.46    -1064.38     2406.11
  -0.881   1.634   2.057   2.771      760.26    -1997.33    -1048.34     2380.41
  -0.884   1.642   2.061   2.780      752.30    -1978.44    -1032.56     2355.08
  -0.888   1.651   2.066   2.789      744.44    -1959.79    -1017.04     2330.09
  -0.891   1.659   2.070   2.798      736.68    -1941.37    -1001.77     2305.46
  -0.894   1.667   2.074   2.808      729.04    -1923.17     -986.75     2281.17
  -0.897   1.676   2.079   2.817      721.49    -1905.19     -971.98     2257.22
  -0.900   1.684   2.083   2.826      714.05    -1887.44     -957.44     2233.60
  -0.904   1.693   2.087   2.835      706.71    -1869.90     -943.13     2210.31
  -0.907   1.701   2.092   2.845      699.46    -1852.57     -929.05     2187.33
  -0.910   1.710   2.096   2.854      692.32    -1835.46     -915.20     2164.67
  -0.913   1.718   2.100   2.863      685.26    -1818.55     -901.57     2142.32
  -0.916   1.727   2.104   2.872      678.31    -1801.84     -888.16     2120.27
  -0.920   1.735   2.108   2.881      671.44    -1785.34     -874.95     2098.53
  -0.923   1.744   2.113   2.891      664.66    -1769.03     -861.96     2077.07
  -0.926   1.752   2.117   2.900      657.98    -1752.92     -849.18     2055.91
  -0.929   1.761   2.121   2.909      651.38    -1737.00     -836.59     2035.03
  -0.932   1.769   2.125   2.918      644.87    -1721.27     -824.20     2014.43
  -0.936   1.778   2.129   2.927      638.44    -1705.72     -812.01     1994.10
  -0.939   1.786   2.133   2.936      632.09    -1690.36     -800.01     1974.05
  -0.942   1.795   2.137   2.946      625.83    -1675.18     -788.20     1954.26
  -0.945   1.804   2.141   2.955      619.65    -1660.17     -776.57     1934.73
  -0.948   1.812   2.145   2.964      613.55    -1645.34     -765.12     1915.46
  -0.952   1.821   2.149   2.973      607.53    -1630.69     -753.85     1896.45
  -0.955   1.829   2.153   2.982      601.58    -1616.20     -742.75     1877.68
  -0.958   1.838   2.157   2.991      595.71    -1601.88     -731.82     1859.16
  -0.961   1.847   2.161   3.001      589.91    -1587.73     -721.07     1840.87
  -0.964   1.855   2.165   3.010      584.19    -1573.74     -710.47     1822.83
  -0.968   1.864   2.169   3.019      578.54    -1559.91     -700.04     1805.02
  -0.971   1.873   2.173   3.028      572.96    -1546.24     -689.77     1787.44
  -0.974   1.881   2.177   3.037      567.45    -1532.73     -679.66     1770.08
  -0.977   1.890   2.180   3.046      562.01    -1519.37     -669.70     1752.95
  -0.980   1.899   2.184   3.056      556.64    -1506.16     -659.90     1736.04
  -0.984   1.907   2.188   3.065      551.34    -1493.10     -650.24     1719.34
  -0.987   1.916   2.192   3.074      546.10    -1480.19     -640.72     1702.85
  -0.990   1.925   2.196   3.083      540.93    -1467.42     -631.36     1686.57
  -0.993   1.933   2.199   3.092      535.82    -1454.80     -622.13     1670.50
  -0.996   1.942   2.203   3.101      530.77    -1442.31     -613.04     1654.63
  -1.000   1.951   2.207   3.110      525.78    -1429.97     -604.09     1638.96
  -1.003   1.959   2.210   3.119      520.86    -1417.76     -595.27     1623.48
  -1.006   1.968   2.214   3.129      516.00    -1405.69     -586.58     1608.20
  -1.009   1.977   2.218   3.138      511.19    -1393.76     -578.03     1593.11
  -1.013   1.986   2.221   3.147      506.45    -1381.95     -569.60     1578.20
  -1.016   1.994   2.225   3.156      501.76    -1370.28     -561.29     1563.48
  -1.019   2.003   2.228   3.165      497.13    -1358.73     -553.11     1548.94
  -1.022   2.012   2.232   3.174      492.55    -1347.31     -545.05     1534.58
  -1.025   2.021   2.236   3.183      488.03    -1336.02     -537.11     1520.40
  -1.029   2.030   2.239   3.192      483.56    -1324.85     -529.29     1506.39
  -1.032   2.038   2.243   3.201      479.15    -1313.79     -521.58     1492.55
  -1.035   2.047   2.246   3.210      474.79    -1302.86     -513.99     1478.87
  -1.038   2.056   2.249   3.219      470.48    -1292.05     -506.50     1465.36
  -1.041   2.065   2.253   3.229      466.22    -1281.35     -499.13     1452.02
  -1.045   2.074   2.256   3.238      462.02    -1270.77     -491.86     1438.84
  -1.048   2.082   2.260   3.247      457.86    -1260.30     -484.70     1425.81
  -1.051   2.091   2.263   3.256      453.75    -1249.95     -477.65     1412.94
  -1.054   2.100   2.267   3.265      449.69    -1239.70     -470.69     1400.23
  -1.057   2.109   2.270   3.274      445.68    -1229.56     -463.84     1387.66
  -1.061   2.118   2.273   3.283      441.71    -1219.53     -457.08     1375.24
  -1.064   2.127   2.277   3.292      437.79    -1209.61     -450.43     1362.98
  -1.067   2.136   2.280   3.301      433.92    -1199.79     -443.87     1350.85
  -1.070   2.145   2.283   3.310      430.09    -1190.08     -437.40     1338.87
  -1.074   2.153   2.286   3.319      426.30    -1180.46     -431.03     1327.03
  -1.077   2.162   2.290   3.328      422.56    -1170.95     -424.75     1315.33
  -1.080   2.171   2.293   3.337      418.86    -1161.53     -418.55     1303.76
  -1.083   2.180   2.296   3.346      415.21    -1152.22     -412.45     1292.33
  -1.086   2.189   2.299   3.355      411.59    -1143.00     -406.43     1281.03
  -1.090   2.198   2.302   3.364      408.02    -1133.88     -400.50     1269.86
  -1.093   2.207   2.306   3.373      404.49    -1124.85     -394.65     1258.83
  -1.096   2.216   2.309   3.382      400.99    -1115.91     -388.89     1247.91
  -1.099   2.225   2.312   3.391      397.54    -1107.07     -383.21     1237.13
  -1.102   2.234   2.315   3.401      394.13    -1098.31     -377.61     1226.46
  -1.106   2.243   2.318   3.410      390.75    -1089.65     -372.08     1215.92
  -1.109   2.252   2.321   3.419      387.41    -1081.07     -366.64     1205.50
  -1.112   2.261   2.324   3.428      384.11    -1072.58     -361.27     1195.20
  -1.115   2.270   2.327   3.437      380.85    -1064.18     -355.98     1185.01
  -1.118   2.279   2.330   3.446      377.62    -1055.87     -350.76     1174.94
  -1.122   2.288   2.333   3.455      374.43    -1047.63     -345.61     1164.98
  -1.125   2.297   2.336   3.464      371.27    -1039.48     -340.54     1155.13
  -1.128   2.306   2.339   3.473      368.15    -1031.41     -335.53     1145.40
  -1.131   2.315   2.342   3.482      365.07    -1023.43     -330.60     1135.77
  -1.135   2.324   2.345   3.491      362.01    -1015.52     -325.73     1126.25
  -1.138   2.333   2.348   3.500      359.00    -1007.69     -320.94     1116.83
  -1.141   2.342   2.350   3.509      356.01     -999.94     -316.21     1107.52
  -1.144   2.351   2.353   3.518      353.06     -992.27     -311.54     1098.32
  -1.147   2.360   2.356   3.526      350.14     -984.67     -306.94     1089.21
  -1.151   2.369   2.359   3.535      347.25     -977.15     -302.40     1080.20
  -1.154   2.378   2.362   3.544      344.39     -969.70     -297.93     1071.30
  -1.157   2.387   2.364   3.553      341.56     -962.32     -293.51     1062.49
  -1.160   2.396   2.367   3.562      338.76     -955.02     -289.16     1053.77
  -1.163   2.405   2.370   3.571      336.00     -947.79     -284.87     1045.15
  -1.167   2.414   2.373   3.580      333.26     -940.63     -280.63     1036.63
  -1.170   2.423   2.375   3.589      330.55     -933.54     -276.45     1028.20
  -1.173   2.432   2.378   3.598      327.88     -926.52     -272.34     1019.85
  -1.176   2.441   2.381   3.607      325.23     -919.56     -268.27     1011.60
  -1.180   2.450   2.383   3.616      322.61     -912.68     -264.26     1003.44
  -1.183   2.459   2.386   3.625      320.01     -905.86     -260.31      995.36
  -1.186   2.469   2.389   3.634      317.45     -899.10     -256.41      987.37
  -1.189   2.478   2.391   3.643      314.91     -892.41     -252.56      979.47
  -1.192   2.487   2.394   3.652      312.39     -885.79     -248.77      971.65
  -1.196   2.496   2.396   3.661      309.91     -879.23     -245.02      963.91
  -1.199   2.505   2.399   3.670      307.45     -872.73     -241.33      956.25
  -1.202   2.514   2.401   3.679      305.02     -866.29     -237.69      948.68
  -1.205   2.523   2.404   3.688      302.61     -859.91     -234.09      941.18
  -1.209   2.532   2.406   3.697      300.22     -853.60     -230.55      933.76
  -1.212   2.542   2.409   3.705      297.87     -847.34     -227.05      926.42
  -1.215   2.551   2.411   3.714      295.53     -841.14     -223.60      919.16
  -1.218   2.560   2.414   3.723      293.22     -835.00     -220.19      911.97
  -1.221   2.569   2.416   3.732      290.94     -828.92     -216.83      904.86
  -1.225   2.578   2.418   3.741      288.67     -822.90     -213.51      897.82
  -1.228   2.587   2.421   3.750      286.43     -816.93     -210.24      890.86
  -1.231   2.597   2.423   3.759      284.22     -811.02     -207.02      883.96
  -1.234   2.606   2.426   3.768      282.02     -805.16     -203.83      877.14
  -1.237   2.615   2.428   3.777      279.85     -799.36     -200.69      870.39
  -1.241   2.624   2.430   3.786      277.71     -793.61     -197.59      863.70
  -1.244   2.633   2.432   3.794      275.58     -787.92     -194.53      857.09
  -1.247   2.643   2.435   3.803      273.47     -782.27     -191.51      850.54
  -1.250   2.652   2.437   3.812      271.39     -776.68     -188.53      844.06
  -1.254   2.661   2.439   3.821      269.33     -771.14     -185.59      837.64
  -1.257   2.670   2.441   3.830      267.28     -765.65     -182.69      831.29
  -1.260   2.679   2.444   3.839      265.26     -760.21     -179.83      825.00
  -1.263   2.689   2.446   3.848      263.26     -754.82     -177.00      818.78
  -1.266   2.698   2.448   3.857      261.28     -749.48     -174.22      812.62
  -1.270   2.707   2.450   3.865      259.32     -744.19     -171.47      806.52
  -1.273   2.716   2.452   3.874      257.38     -738.95     -168.75      800.48
  -1.276   2.725   2.454   3.883      255.45     -733.75     -166.07      794.50
  -1.279   2.735   2.456   3.892      253.55     -728.60     -163.43      788.58
  -1.282   2.744   2.458   3.901      251.67     -723.50     -160.82      782.72
  -1.286   2.753   2.460   3.910      249.80     -718.44     -158.24      776.92
  -1.289   2.762   2.462   3.919      247.95     -713.43     -155.70      771.17
  -1.292   2.772   2.464   3.927      246.12     -708.46     -153.19      765.48
  -1.295   2.781   2.466   3.936      244.31     -703.54     -150.71      759.85
  -1.299   2.790   2.468   3.945      242.52     -698.66     -148.27      754.27
  -1.302   2.799   2.470   3.954      240.74     -693.83     -145.85      748.75
  -1.305   2.809   2.472   3.963      238.98     -689.04     -143.47      743.28
  -1.308   2.818   2.474   3.972      237.24     -684.29     -141.12      737.87
  -1.311   2.827   2.476   3.981      235.52     -679.58     -138.80      732.50
  -1.315   2.837   2.478   3.989      233.81     -674.91     -136.51      727.19
  -1.318   2.846   2.480   3.998      232.12     -670.29     -134.25      721.93
  -1.321   2.855   2.482   4.007      230.44     -665.70     -132.02      716.72
  -1.324   2.864   2.484   4.016      228.78     -661.16     -129.82      711.56
  -1.327   2.874   2.485   4.025      227.14     -656.65     -127.64      706.45
  -1.331   2.883   2.487   4.033      225.51     -652.19     -125.50      701.39
  -1.334   2.892   2.489   4.042      223.90     -647.76     -123.38      696.38
  -1.337   2.902   2.491   4.051      222.31     -643.37     -121.29      691.42
  -1.340   2.911   2.492   4.060      220.73     -639.02     -119.22      686.50
  -1.344   2.920   2.494   4.069      219.16     -634.71     -117.18      681.63
  -1.347   2.930   2.496   4.077      217.61     -630.44     -115.17      676.81
  -1.350   2.939   2.498   4.086      216.07     -626.20     -113.18      672.03
  -1.353   2.948   2.499   4.095      214.55     -622.00     -111.22      667.29
  -1.356   2.958   2.501   4.104      213.04     -617.83     -109.29      662.61
  -1.360   2.967   2.503   4.113      211.55     -613.70     -107.38      657.96
  -1.363   2.976   2.504   4.121      210.07     -609.61     -105.49      653.36
  -1.366   2.985   2.506   4.130      208.61     -605.55     -103.63      648.80
  -1.369   2.995   2.507   4.139      207.16     -601.52     -101.79      644.28
  -1.372   3.004   2.509   4.148      205.72     -597.53      -99.97      639.81
  -1.376   3.014   2.510   4.156      204.29     -593.57      -98.18      635.38
  -1.379   3.023   2.512   4.165      202.88     -589.65      -96.41      630.99
  -1.382   3.032   2.514   4.174      201.49     -585.76      -94.66      626.63
  -1.385   3.042   2.515   4.183      200.10     -581.90      -92.94      622.32
  -1.389   3.051   2.517   4.192      198.73     -578.08      -91.23      618.05
  -1.392   3.060   2.518   4.200      197.37     -574.28      -89.55      613.82
  -1.395   3.070   2.519   4.209      196.02     -570.52      -87.89      609.63
  -1.398   3.079   2.521   4.218      194.69     -566.79      -86.25      605.47
  -1.401   3.088   2.522   4.227      193.36     -563.10      -84.63      601.36
  -1.405   3.098   2.524   4.235      192.05     -559.43      -83.03      597.28
  -1.408   3.107   2.525   4.244      190.76     -555.79      -81.45      593.23
  -1.411   3.116   2.526   4.253      189.47     -552.18      -79.90      589.23
  -1.414   3.126   2.528   4.262      188.19     -548.61      -78.36      585.26
  -1.418   3.135   2.529   4.270      186.93     -545.06      -76.84      581.32
  -1.421   3.145   2.530   4.279      185.68     -541.54      -75.34      577.42
  -1.424   3.154   2.532   4.288      184.44     -538.05      -73.86      573.56
  -1.427   3.163   2.533   4.296      183.21     -534.59      -72.39      569.73
  -1.430   3.173   2.534   4.305      181.99     -531.16      -70.95      565.94
  -1.434   3.182   2.536   4.314      180.78     -527.76      -69.52      562.18
  -1.437   3.191   2.537   4.323      179.59     -524.38      -68.11      558.45
  -1.440   3.201   2.538   4.331      178.40     -521.03      -66.72      554.75
  -1.443   3.210   2.539   4.340      177.23     -517.71      -65.35      551.09
  -1.446   3.220   2.540   4.349      176.06     -514.41      -63.99      547.46
  -1.450   3.229   2.541   4.357      174.91     -511.15      -62.65      543.87
  -1.453   3.238   2.543   4.366      173.77     -507.91      -61.33      540.30
  -1.456   3.248   2.544   4.375      172.63     -504.69      -60.03      536.77
  -1.459   3.257   2.545   4.384      171.51     -501.50      -58.74      533.26
  -1.463   3.267   2.546   4.392      170.40     -498.34      -57.46      529.79
  -1.466   3.276   2.547   4.401      169.29     -495.20      -56.20      526.35
  -1.469   3.285   2.548   4.410      168.20     -492.09      -54.96      522.94
  -1.472   3.295   2.549   4.418      167.11     -489.00      -53.74      519.55
  -1.475   3.304   2.550   4.427      166.04     -485.94      -52.52      516.20
  -1.479   3.314   2.551   4.436      164.97     -482.90      -51.33      512.87
  -1.482   3.323   2.552   4.444      163.92     -479.88      -50.15      509.58
  -1.485   3.333   2.553   4.453      162.87     -476.89      -48.98      506.31
  -1.488   3.342   2.554   4.462      161.83     -473.93      -47.83      503.07
  -1.491   3.351   2.555   4.470      160.80     -470.98      -46.69      499.86
  -1.495   3.361   2.556   4.479      159.78     -468.06      -45.57      496.68
  -1.498   3.370   2.557   4.488      158.77     -465.16      -44.46      493.52
  -1.501   3.380   2.558   4.496      157.77     -462.29      -43.36      490.39
  -1.504   3.389   2.559   4.505      156.77     -459.44      -42.28      487.29
  -1.508   3.399   2.560   4.514      155.79     -456.61      -41.21      484.21
  -1.511   3.408   2.560   4.522      154.81     -453.80      -40.15      481.16
  -1.514   3.417   2.561   4.531      153.84     -451.02      -39.11      478.14
  -1.517   3.427   2.562   4.540      152.88     -448.25      -38.08      475.14
  -1.520   3.436   2.563   4.548      151.93     -445.51      -37.06      472.16
  -1.524   3.446   2.564   4.557      150.99     -442.79      -36.06      469.21
  -1.527   3.455   2.564   4.566      150.05     -440.09      -35.07      466.29
  -1.530   3.465   2.565   4.574      149.13     -437.41      -34.09      463.39
  -1.533   3.474   2.566   4.583      148.21     -434.75      -33.12      460.51
  -1.537   3.483   2.567   4.592      147.29     -432.11      -32.17      457.66
  -1.540   3.493   2.567   4.600      146.39     -429.50      -31.22      454.83
  -1.543   3.502   2.568   4.609      145.49     -426.90      -30.29      452.03
  -1.546   3.512   2.569   4.617      144.60     -424.32      -29.37      449.25
  -1.549   3.521   2.569   4.626      143.72     -421.77      -28.46      446.49
  -1.553   3.531   2.570   4.635      142.85     -419.23      -27.56      443.75
  -1.556   3.540   2.570   4.643      141.98     -416.71      -26.68      441.04
  -1.559   3.550   2.571   4.652      141.12     -414.21      -25.80      438.35
  -1.562   3.559   2.572   4.661      140.27     -411.73      -24.93      435.68
  -1.565   3.568   2.572   4.669      139.42     -409.27      -24.08      433.03
  -1.569   3.578   2.573   4.678      138.58     -406.82      -23.24      430.41
  -1.572   3.587   2.573   4.686      137.75     -404.40      -22.40      427.80
  -1.575   3.597   2.574   4.695      136.93     -401.99      -21.58      425.22
  -1.578   3.606   2.574   4.704      136.11     -399.60      -20.77      422.66
  -1.582   3.616   2.575   4.712      135.30     -397.23      -19.96      420.12
  -1.585   3.625   2.575   4.721      134.49     -394.88      -19.17      417.60
  -1.588   3.635   2.576   4.729      133.70     -392.55      -18.39      415.10
  -1.591   3.644   2.576   4.738      132.90     -390.23      -17.61      412.62
  -1.594   3.654   2.577   4.747      132.12     -387.93      -16.85      410.16
  -1.598   3.663   2.577   4.755      131.34     -385.65      -16.09      407.72
  -1.601   3.672   2.577   4.764      130.57     -383.38      -15.35      405.29
  -1.604   3.682   2.578   4.772      129.80     -381.13      -14.61      402.89
  -1.607   3.691   2.578   4.781      129.04     -378.90      -13.89      400.51
  -1.611   3.701   2.578   4.789      128.29     -376.68      -13.17      398.15
  -1.614   3.710   2.579   4.798      127.54     -374.48      -12.46      395.80
  -1.617   3.720   2.579   4.807      126.80     -372.30      -11.76      393.48
  -1.620   3.729   2.579   4.815      126.07     -370.13      -11.07      391.17
  -1.623   3.739   2.580   4.824      125.34     -367.98      -10.38      388.88
  -1.627   3.748   2.580   4.832      124.61     -365.84       -9.71      386.61
  -1.630   3.758   2.580   4.841      123.89     -363.72       -9.04      384.35
  -1.633   3.767   2.580   4.849      123.18     -361.62       -8.38      382.12
  -1.636   3.777   2.581   4.858      122.48     -359.53       -7.73      379.90
  -1.640   3.786   2.581   4.866      121.78     -357.46       -7.09      377.70
  -1.643   3.795   2.581   4.875      121.08     -355.40       -6.46      375.51
  -1.646   3.805   2.581   4.884      120.39     -353.35       -5.83      373.34
  -1.649   3.814   2.581   4.892      119.71     -351.32       -5.21      371.19
  -1.652   3.824   2.581   4.901      119.03     -349.31       -4.60      369.06
  -1.656   3.833   2.581   4.909      118.35     -347.31       -4.00      366.94
  -1.659   3.843   2.582   4.918      117.69     -345.32       -3.40      364.84
  -1.662   3.852   2.582   4.926      117.02     -343.35       -2.81      362.76
  -1.665   3.862   2.582   4.935      116.37     -341.39       -2.23      360.69
  -1.669   3.871   2.582   4.943      115.71     -339.45       -1.65      358.64
  -1.672   3.881   2.582   4.952      115.07     -337.52       -1.09      356.60
  -1.675   3.890   2.582   4.960      114.42     -335.61       -0.53      354.58
  -1.678   3.900   2.582   4.969      113.79     -333.70        0.03      352.57
  -1.682   3.909   2.582   4.977      113.15     -331.82        0.57      350.58
  -1.685   3.919   2.582   4.986      112.53     -329.94        1.11      348.60
  -1.688   3.928   2.582   4.994      111.90     -328.08        1.65      346.64
  -1.691   3.937   2.582   5.003      111.29     -326.23        2.17      344.70
  -1.694   3.947   2.582   5.011      110.67     -324.39        2.69      342.76
  -1.698   3.956   2.582   5.020      110.07     -322.57        3.21      340.85
  -1.701   3.966   2.581   5.028      109.46     -320.76        3.71      338.95
  -1.704   3.975   2.581   5.037      108.86     -318.96        4.22      337.06
  -1.707   3.985   2.581   5.045      108.27     -317.18        4.71      335.18
  -1.711   3.994   2.581   5.054      107.68     -315.41        5.20      333.32
  -1.714   4.004   2.581   5.062      107.09     -313.65        5.68      331.48
  -1.717   4.013   2.581   5.071      106.51     -311.90        6.16      329.64
  -1.720   4.023   2.581   5.079      105.94     -310.17        6.63      327.83
  -1.724   4.032   2.580   5.088      105.36     -308.44        7.09      326.02
  -1.727   4.042   2.580   5.096      104.80     -306.73        7.55      324.23
  -1.730   4.051   2.580   5.105      104.23     -305.03        8.01      322.45
  -1.733   4.060   2.580   5.113      103.67     -303.35        8.45      320.68
  -1.736   4.070   2.579   5.122      103.12     -301.67        8.90      318.93
  -1.740   4.079   2.579   5.130      102.57     -300.01        9.33      317.19
  -1.743   4.089   2.579   5.139      102.02     -298.35        9.76      315.46
  -1.746   4.098   2.578   5.147      101.48     -296.71       10.19      313.75
  -1.749   4.108   2.578   5.156      100.94     -295.08       10.61      312.05
  -1.753   4.117   2.578   5.164      100.41     -293.46       11.03      310.36
  -1.756   4.127   2.577   5.173       99.88     -291.85       11.44      308.68
  -1.759   4.136   2.577   5.181       99.35     -290.26       11.84      307.02
  -1.762   4.146   2.577   5.189       98.83     -288.67       12.24      305.36
  -1.766   4.155   2.576   5.198       98.31     -287.09       12.64      303.72
  -1.769   4.164   2.576   5.206       97.80     -285.53       13.03      302.09
  -1.772   4.174   2.575   5.215       97.28     -283.98       13.41      300.48
  -1.775   4.183   2.575   5.223       96.78     -282.43       13.79      298.87
  -1.779   4.193   2.574   5.232       96.27     -280.90       14.17      297.28
  -1.782   4.202   2.574   5.240       95.77     -279.38       14.54      295.69
  -1.785   4.212   2.573   5.249       95.28     -277.86       14.91      294.12
  -1.788   4.221   2.573   5.257       94.79     -276.36       15.27      292.56
  -1.791   4.231   2.572   5.265       94.30     -274.87       15.63      291.01
  -1.795   4.240   2.572   5.274       93.81     -273.38       15.98      289.47
  -1.798   4.250   2.571   5.282       93.33     -271.91       16.33      287.95
  -1.801   4.259   2.571   5.291       92.85     -270.45       16.67      286.43
  -1.804   4.268   2.570   5.299       92.38     -269.00       17.01      284.92
  -1.808   4.278   2.569   5.308       91.90     -267.55       17.35      283.43
  -1.811   4.287   2.569   5.316       91.44     -266.12       17.68      281.94
  -1.814   4.297   2.568   5.324       90.97     -264.69       18.01      280.47
  -1.817   4.306   2.568   5.333       90.51     -263.28       18.33      279.01
  -1.821   4.316   2.567   5.341       90.05     -261.87       18.65      277.55
  -1.824   4.325   2.566   5.350       89.60     -260.48       18.96      276.11
  -1.827   4.334   2.566   5.358       89.15     -259.09       19.27      274.67
  -1.830   4.344   2.565   5.366       88.70     -257.71       19.58      273.25
  -1.834   4.353   2.564   5.375       88.25     -256.34       19.88      271.84
  -1.837   4.363   2.563   5.383       87.81     -254.98       20.18      270.43
  -1.840   4.372   2.563   5.392       87.37     -253.63       20.48      269.04
  -1.843   4.382   2.562   5.400       86.94     -252.29       20.77      267.65
  -1.847   4.391   2.561   5.408       86.51     -250.95       21.06      266.28
  -1.850   4.400   2.560   5.417       86.08     -249.63       21.34      264.91
  -1.853   4.410   2.559   5.425       85.65     -248.31       21.62      263.56
  -1.856   4.419   2.559   5.433       85.23     -247.00       21.90      262.21
  -1.860   4.429   2.558   5.442       84.81     -245.70       22.18      260.87
  -1.863   4.438   2.557   5.450       84.39     -244.41       22.45      259.54
  -1.866   4.448   2.556   5.459       83.97     -243.13       22.71      258.22
  -1.869   4.457   2.555   5.467       83.56     -241.85       22.98      256.91
  -1.873   4.466   2.554   5.475       83.15     -240.59       23.24      255.61
  -1.876   4.476   2.553   5.484       82.75     -239.33       23.49      254.32
  -1.879   4.485   2.552   5.492       82.34     -238.08       23.75      253.03
  -1.882   4.495   2.551   5.500       81.94     -236.84       24.00      251.76
  -1.886   4.504   2.551   5.509       81.55     -235.60       24.24      250.49
  -1.889   4.513   2.550   5.517       81.15     -234.37       24.49      249.23
  -1.892   4.523   2.549   5.526       80.76     -233.16       24.73      247.98
  -1.895   4.532   2.548   5.534       80.37     -231.94       24.96      246.74
  -1.899   4.542   2.547   5.542       79.98     -230.74       25.20      245.51
  -1.902   4.551   2.545   5.551       79.60     -229.54       25.43      244.28
  -1.905   4.560   2.544   5.559       79.22     -228.36       25.66      243.06
  -1.908   4.570   2.543   5.567       78.84     -227.17       25.88      241.85
  -1.912   4.579   2.542   5.576       78.46     -226.00       26.11      240.65
  -1.915   4.589   2.541   5.584       78.09     -224.83       26.32      239.46
  -1.918   4.598   2.540   5.592       77.72     -223.67       26.54      238.27
  -1.921   4.607   2.539   5.601       77.35     -222.52       26.75      237.10
  -1.925   4.617   2.538   5.609       76.98     -221.38       26.97      235.93
  -1.928   4.626   2.537   5.617       76.62     -220.24       27.17      234.76
  -1.931   4.636   2.536   5.626       76.26     -219.11       27.38      233.61
  -1.935   4.645   2.534   5.634       75.90     -217.99       27.58      232.46
  -1.938   4.654   2.533   5.642       75.54     -216.87       27.78      231.32
  -1.941   4.664   2.532   5.650       75.19     -215.76       27.98      230.19
  -1.944   4.673   2.531   5.659       74.83     -214.66       28.17      229.07
  -1.948   4.682   2.529   5.667       74.49     -213.56       28.37      227.95
  -1.951   4.692   2.528   5.675       74.14     -212.47       28.56      226.84
  -1.954   4.701   2.527   5.684       73.79     -211.39       28.74      225.73
  -1.957   4.710   2.526   5.692       73.45     -210.31       28.93      224.64
  -1.961   4.720   2.524   5.700       73.11     -209.24       29.11      223.55
  -1.964   4.729   2.523   5.709       72.77     -208.18       29.29      222.47
  -1.967   4.739   2.522   5.717       72.44     -207.12       29.47      221.39
  -1.971   4.748   2.520   5.725       72.10     -206.07       29.64      220.32
  -1.974   4.757   2.519   5.734       71.77     -205.03       29.81      219.26
  -1.977   4.767   2.518   5.742       71.44     -203.99       29.98      218.21
  -1.980   4.776   2.516   5.750       71.11     -202.96       30.15      217.16
  -1.984   4.785   2.515   5.758       70.79     -201.93       30.32      216.12
  -1.987   4.795   2.514   5.767       70.47     -200.91       30.48      215.08
  -1.990   4.804   2.512   5.775       70.14     -199.90       30.64      214.05
  -1.993   4.813   2.511   5.783       69.83     -198.89       30.80      213.03
  -1.997   4.823   2.509   5.791       69.51     -197.89       30.96      212.02
  -2.000   4.832   2.508   5.800       69.19     -196.90       31.11      211.01
  -2.003   4.841   2.506   5.808       68.88     -195.91       31.26      210.01
  -2.007   4.851   2.505   5.816       68.57     -194.93       31.41      209.01
  -2.010   4.860   2.503   5.825       68.26     -193.95       31.56      208.02
  -2.013   4.869   2.502   5.833       67.95     -192.98       31.71      207.03
  -2.016   4.879   2.500   5.841       67.65     -192.01       31.85      206.06
  -2.020   4.888   2.499   5.849       67.35     -191.05       31.99      205.08
  -2.023   4.897   2.497   5.858       67.04     -190.10       32.13      204.12
  -2.026   4.907   2.495   5.866       66.74     -189.15       32.27      203.16
  -2.030   4.916   2.494   5.874       66.45     -188.20       32.41      202.20
  -2.033   4.925   2.492   5.882       66.15     -187.27       32.54      201.25
  -2.036   4.934   2.491   5.891       65.86     -186.33       32.67      200.31
  -2.039   4.944   2.489   5.899       65.57     -185.41       32.80      199.38
  -2.043   4.953   2.487   5.907       65.28     -184.49       32.93      198.44
  -2.046   4.962   2.486   5.915       64.99     -183.57       33.06      197.52
  -2.049   4.972   2.484   5.923       64.70     -182.66       33.18      196.60
  -2.053   4.981   2.482   5.932       64.42     -181.75       33.30      195.68
  -2.056   4.990   2.481   5.940       64.13     -180.85       33.42      194.78
  -2.059   5.000   2.479   5.948       63.85     -179.96       33.54      193.87
  -2.062   5.009   2.477   5.956       63.57     -179.07       33.66      192.98
  -2.066   5.018   2.475   5.965       63.29     -178.18       33.77      192.08
  -2.069   5.027   2.474   5.973       63.02     -177.30       33.89      191.20
  -2.072   5.037   2.472   5.981       62.74     -176.43       34.00      190.31
  -2.076   5.046   2.470   5.989       62.47     -175.56       34.11      189.44
  -2.079   5.055   2.468   5.997       62.20     -174.69       34.22      188.57
  -2.082   5.064   2.466   6.006       61.93     -173.83       34.33      187.70
  -2.086   5.074   2.465   6.014       61.66     -172.98       34.43      186.84
  -2.089   5.083   2.463   6.022       61.40     -172.13       34.53      185.98
  -2.092   5.092   2.461   6.030       61.13     -171.28       34.64      185.13
  -2.095   5.101   2.459   6.038       60.87     -170.44       34.74      184.29
  -2.099   5.111   2.457   6.047       60.61     -169.61       34.84      183.45
  -2.102   5.120   2.455   6.055       60.35     -168.77       34.93      182.61
  -2.105   5.129   2.453   6.063       60.09     -167.95       35.03      181.78
  -2.109   5.138   2.451   6.071       59.83     -167.13       35.12      180.95
  -2.112   5.148   2.449   6.079       59.57     -166.31       35.22      180.13
  -2.115   5.157   2.447   6.087       59.32     -165.50       35.31      179.32
  -2.119   5.166   2.445   6.096       59.07     -164.69       35.40      178.50
  -2.122   5.175   2.443   6.104       58.82     -163.88       35.48      177.70
  -2.125   5.185   2.441   6.112       58.57     -163.08       35.57      176.89
  -2.128   5.194   2.439   6.120       58.32     -162.29       35.66      176.10
  -2.132   5.203   2.437   6.128       58.07     -161.50       35.74      175.30
  -2.135   5.212   2.435   6.137       57.83     -160.71       35.82      174.52
  -2.138   5.221   2.433   6.145       57.58     -159.93       35.90      173.73
  -2.142   5.231   2.431   6.153       57.34     -159.15       35.98      172.95
  -2.145   5.240   2.429   6.161       57.10     -158.38       36.06      172.18
  -2.148   5.249   2.427   6.169       56.86     -157.61       36.14      171.41
  -2.152   5.258   2.425   6.177       56.62     -156.85       36.21      170.64
  -2.155   5.267   2.423   6.185       56.38     -156.09       36.29      169.88
  -2.158   5.277   2.421   6.194       56.15     -155.33       36.36      169.12
  -2.162   5.286   2.419   6.202       55.91     -154.58       36.43      168.37
  -2.165   5.295   2.416   6.210       55.68     -153.83       36.50      167.62
  -2.168   5.304   2.414   6.218       55.45     -153.08       36.57      166.87
  -2.172   5.313   2.412   6.226       55.22     -152.34       36.64      166.13
  -2.175   5.322   2.410   6.234       54.99     -151.61       36.70      165.40
  -2.178   5.332   2.408   6.242       54.76     -150.87       36.77      164.66
  -2.182   5.341   2.405   6.250       54.54     -150.15       36.83      163.94
  -2.185   5.350   2.403   6.259       54.31     -149.42       36.89      163.21
  -2.188   5.359   2.401   6.267       54.09     -148.70       36.96      162.49
  -2.192   5.368   2.398   6.275       53.86     -147.98       37.02      161.77
  -2.195   5.377   2.396   6.283       53.64     -147.27       37.07      161.06
  -2.198   5.387   2.394   6.291       53.42     -146.56       37.13      160.35
  -2.202   5.396   2.392   6.299       53.20     -145.86       37.19      159.65
  -2.205   5.405   2.389   6.307       52.98     -145.16       37.24      158.95
  -2.208   5.414   2.387   6.315       52.77     -144.46       37.30      158.25
  -2.212   5.423   2.385   6.323       52.55     -143.76       37.35      157.56
  -2.215   5.432   2.382   6.332       52.34     -143.07       37.40      156.87
  -2.218   5.441   2.380   6.340       52.13     -142.39       37.45      156.18
  -2.222   5.450   2.377   6.348       51.91     -141.70       37.50      155.50
  -2.225   5.460   2.375   6.356       51.70     -141.02       37.55      154.82
  -2.228   5.469   2.372   6.364       51.49     -140.35       37.60      154.15
  -2.232   5.478   2.370   6.372       51.28     -139.67       37.65      153.48
  -2.235   5.487   2.368   6.380       51.08     -139.01       37.69      152.81
  -2.238   5.496   2.365   6.388       50.87     -138.34       37.73      152.15
  -2.242   5.505   2.363   6.396       50.66     -137.68       37.78      151.49
  -2.245   5.514   2.360   6.404       50.46     -137.02       37.82      150.83
  -2.248   5.523   2.358   6.412       50.26     -136.36       37.86      150.18
  -2.252   5.532   2.355   6.420       50.05     -135.71       37.90      149.53
  -2.255   5.541   2.353   6.429       49.85     -135.06       37.94      148.89
  -2.258   5.550   2.350   6.437       49.65     -134.42       37.98      148.24
  -2.262   5.559   2.347   6.445       49.45     -133.78       38.01      147.60
  -2.265   5.569   2.345   6.453       49.26     -133.14       38.05      146.97
  -2.268   5.578   2.342   6.461       49.06     -132.50       38.09      146.34
  -2.272   5.587   2.340   6.469       48.86     -131.87       38.12      145.71
  -2.275   5.596   2.337   6.477       48.67     -131.24       38.15      145.08
  -2.278   5.605   2.334   6.485       48.48     -130.62       38.19      144.46
  -2.282   5.614   2.332   6.493       48.28     -129.99       38.22      143.84
  -2.285   5.623   2.329   6.501       48.09     -129.37       38.25      143.22
  -2.289   5.632   2.326   6.509       47.90     -128.76       38.28      142.61
  -2.292   5.641   2.324   6.517       47.71     -128.14       38.30      142.00
  -2.295   5.650   2.321   6.525       47.52     -127.53       38.33      141.39
  -2.299   5.659   2.318   6.533       47.33     -126.93       38.36      140.79
  -2.302   5.668   2.316   6.541       47.15     -126.32       38.38      140.19
  -2.305   5.677   2.313   6.549       46.96     -125.72       38.41      139.59
  -2.309   5.686   2.310   6.557       46.78     -125.12       38.43      139.00
  -2.312   5.695   2.307   6.565       46.59     -124.53       38.45      138.41
  -2.315   5.704   2.304   6.573       46.41     -123.94       38.48      137.82
  -2.319   5.713   2.302   6.581       46.23     -123.35       38.50      137.24
  -2.322   5.722   2.299   6.589       46.04     -122.76       38.52      136.65
  -2.326   5.731   2.296   6.597       45.86     -122.18       38.54      136.08
  -2.329   5.740   2.293   6.605       45.68     -121.60       38.56      135.50
  -2.332   5.749   2.290   6.613       45.50     -121.02       38.57      134.93
  -2.336   5.758   2.287   6.621       45.33     -120.45       38.59      134.36
  -2.339   5.767   2.285   6.629       45.15     -119.88       38.61      133.79
  -2.342   5.776   2.282   6.637       44.97     -119.31       38.62      133.22
  -2.346   5.785   2.279   6.645       44.80     -118.74       38.64      132.66
  -2.349   5.794   2.276   6.653       44.62     -118.18       38.65      132.10
  -2.353   5.803   2.273   6.661       44.45     -117.62       38.66      131.55
  -2.356   5.811   2.270   6.669       44.28     -117.06       38.68      130.99
  -2.359   5.820   2.267   6.677       44.11     -116.51       38.69      130.44
  -2.363   5.829   2.264   6.685       43.93     -115.95       38.70      129.90
  -2.366   5.838   2.261   6.693       43.76     -115.40       38.71      129.35
  -2.369   5.847   2.258   6.701       43.60     -114.86       38.72      128.81
  -2.373   5.856   2.255   6.709       43.43     -114.31       38.73      128.27
  -2.376   5.865   2.252   6.717       43.26     -113.77       38.73      127.73
  -2.380   5.874   2.249   6.725       43.09     -113.23       38.74      127.20
  -2.383   5.883   2.246   6.733       42.93     -112.70       38.75      126.67
  -2.386   5.892   2.243   6.741       42.76     -112.16       38.75      126.14
  -2.390   5.901   2.240   6.749       42.60     -111.63       38.76      125.61
  -2.393   5.909   2.237   6.757       42.43     -111.10       38.76      125.09
  -2.397   5.918   2.234   6.765       42.27     -110.58       38.76      124.56
  -2.400   5.927   2.230   6.773       42.11     -110.05       38.77      124.05
  -2.403   5.936   2.227   6.780       41.94     -109.53       38.77      123.53
  -2.407   5.945   2.224   6.788       41.78     -109.01       38.77      123.01
  -2.410   5.954   2.221   6.796       41.62     -108.50       38.77      122.50
  -2.414   5.963   2.218   6.804       41.46     -107.98       38.77      121.99
  -2.417   5.972   2.215   6.812       41.31     -107.47       38.77      121.49
  -2.420   5.980   2.212   6.820       41.15     -106.96       38.77      120.98
  -2.424   5.989   2.208   6.828       40.99     -106.46       38.77      120.48
  -2.427   5.998   2.205   6.836       40.83     -105.95       38.76      119.98
  -2.431   6.007   2.202   6.844       40.68     -105.45       38.76      119.48
  -2.434   6.016   2.199   6.852       40.52     -104.95       38.76      118.99
  -2.437   6.025   2.195   6.860       40.37     -104.45       38.75      118.50
  -2.441   6.033   2.192   6.868       40.21     -103.96       38.75      118.01
  -2.444   6.042   2.189   6.875       40.06     -103.47       38.74      117.52
  -2.448   6.051   2.185   6.883       39.91     -102.98       38.73      117.03
  -2.451   6.060   2.182   6.891       39.76     -102.49       38.73      116.55
  -2.454   6.069   2.179   6.899       39.61     -102.00       38.72      116.07
  -2.458   6.077   2.175   6.907       39.46     -101.52       38.71      115.59
  -2.461   6.086   2.172   6.915       39.31     -101.04       38.70      115.12
  -2.465   6.095   2.169   6.923       39.16     -100.56       38.69      114.64
  -2.468   6.104   2.165   6.931       39.01     -100.08       38.68      114.17
  -2.472   6.112   2.162   6.939       38.86      -99.61       38.67      113.70
  -2.475   6.121   2.159   6.946       38.71      -99.14       38.66      113.23
  -2.478   6.130   2.155   6.954       38.57      -98.67       38.65      112.77
  -2.482   6.139   2.152   6.962       38.42      -98.20       38.63      112.30
  -2.485   6.147   2.148   6.970       38.28      -97.73       38.62      111.84
  -2.489   6.156   2.145   6.978       38.13      -97.27       38.61      111.38
  -2.492   6.165   2.141   6.986       37.99      -96.81       38.59      110.93
  -2.495   6.174   2.138   6.994       37.84      -96.35       38.58      110.47
  -2.499   6.182   2.134   7.001       37.70      -95.89       38.56      110.02
  -2.502   6.191   2.131   7.009       37.56      -95.44       38.55      109.57
  -2.506   6.200   2.127   7.017       37.42      -94.98       38.53      109.12
  -2.509   6.208   2.124   7.025       37.28      -94.53       38.52      108.67
  -2.513   6.217   2.120   7.033       37.14      -94.08       38.50      108.23
  -2.516   6.226   2.117   7.041       37.00      -93.64       38.48      107.78
  -2.519   6.235   2.113   7.049       36.86      -93.19       38.46      107.34
  -2.523   6.243   2.109   7.056       36.72      -92.75       38.44      106.90
  -2.526   6.252   2.106   7.064       36.58      -92.31       38.42      106.47
  -2.530   6.261   2.102   7.072       36.44      -91.87       38.40      106.03
  -2.533   6.269   2.099   7.080       36.31      -91.43       38.38      105.60
  -2.537   6.278   2.095   7.088       36.17      -91.00       38.36      105.17
  -2.540   6.286   2.091   7.095       36.03      -90.56       38.34      104.74
  -2.544   6.295   2.088   7.103       35.90      -90.13       38.32      104.31
  -2.547   6.304   2.084   7.111       35.76      -89.70       38.30      103.89
  -2.550   6.312   2.080   7.119       35.63      -89.28       38.28      103.46
  -2.554   6.321   2.077   7.127       35.50      -88.85       38.25      103.04
  -2.557   6.330   2.073   7.135       35.36      -88.43       38.23      102.62
  -2.561   6.338   2.069   7.142       35.23      -88.00       38.21      102.20
  -2.564   6.347   2.065   7.150       35.10      -87.59       38.18      101.79
  -2.568   6.355   2.062   7.158       34.97      -87.17       38.16      101.37
  -2.571   6.364   2.058   7.166       34.83      -86.75       38.13      100.96
  -2.575   6.373   2.054   7.173       34.70      -86.34       38.10      100.55
  -2.578   6.381   2.050   7.181       34.57      -85.92       38.08      100.14
  -2.581   6.390   2.046   7.189       34.44      -85.51       38.05       99.73
  -2.585   6.398   2.043   7.197       34.32      -85.10       38.03       99.33
  -2.588   6.407   2.039   7.205       34.19      -84.70       38.00       98.93
  -2.592   6.416   2.035   7.212       34.06      -84.29       37.97       98.52
  -2.595   6.424   2.031   7.220       33.93      -83.89       37.94       98.12
  -2.599   6.433   2.027   7.228       33.80      -83.49       37.91       97.72
  -2.602   6.441   2.023   7.236       33.68      -83.09       37.88       97.33
  -2.606   6.450   2.019   7.243       33.55      -82.69       37.86       96.93
  -2.609   6.458   2.016   7.251       33.42      -82.29       37.83       96.54
  -2.613   6.467   2.012   7.259       33.30      -81.90       37.80       96.15
  -2.616   6.475   2.008   7.267       33.17      -81.50       37.76       95.76
  -2.620   6.484   2.004   7.274       33.05      -81.11       37.73       95.37
  -2.623   6.492   2.000   7.282       32.93      -80.72       37.70       94.98
  -2.626   6.501   1.996   7.290       32.80      -80.33       37.67       94.60
  -2.630   6.509   1.992   7.298       32.68      -79.95       37.64       94.21
  -2.633   6.518   1.988   7.305       32.56      -79.56       37.61       93.83
  -2.637   6.526   1.984   7.313       32.43      -79.18       37.57       93.45
  -2.640   6.535   1.980   7.321       32.31      -78.80       37.54       93.07
  -2.644   6.543   1.976   7.328       32.19      -78.42       37.51       92.70
  -2.647   6.552   1.972   7.336       32.07      -78.04       37.47       92.32
  -2.651   6.560   1.968   7.344       31.95      -77.66       37.44       91.95
  -2.654   6.568   1.964   7.352       31.83      -77.29       37.41       91.57
  -2.658   6.577   1.959   7.359       31.71      -76.91       37.37       91.20
  -2.661   6.585   1.955   7.367       31.59      -76.54       37.34       90.83
  -2.665   6.594   1.951   7.375       31.47      -76.17       37.30       90.47
  -2.668   6.602   1.947   7.382       31.35      -75.80       37.27       90.10
  -2.672   6.611   1.943   7.390       31.23      -75.44       37.23       89.73
  -2.675   6.619   1.939   7.398       31.12      -75.07       37.19       89.37
  -2.679   6.627   1.935   7.405       31.00      -74.71       37.16       89.01
  -2.682   6.636   1.930   7.413       30.88      -74.34       37.12       88.65
  -2.686   6.644   1.926   7.421       30.76      -73.98       37.08       88.29
  -2.689   6.653   1.922   7.428       30.65      -73.62       37.05       87.93
  -2.693   6.661   1.918   7.436       30.53      -73.26       37.01       87.58
  -2.696   6.669   1.914   7.444       30.42      -72.91       36.97       87.22
  -2.699   6.678   1.909   7.451       30.30      -72.55       36.93       86.87
  -2.703   6.686   1.905   7.459       30.19      -72.20       36.89       86.52
  -2.706   6.694   1.901   7.467       30.07      -71.85       36.86       86.17
  -2.710   6.703   1.897   7.474       29.96      -71.49       36.82       85.82
  -2.713   6.711   1.892   7.482       29.84      -71.14       36.78       85.47
  -2.717   6.719   1.888   7.490       29.73      -70.80       36.74       85.12
  -2.720   6.728   1.884   7.497       29.62      -70.45       36.70       84.78
  -2.724   6.736   1.879   7.505       29.50      -70.10       36.66       84.43
  -2.727   6.744   1.875   7.513       29.39      -69.76       36.62       84.09
  -2.731   6.753   1.871   7.520       29.28      -69.42       36.58       83.75
  -2.734   6.761   1.866   7.528       29.17      -69.08       36.54       83.41
  -2.738   6.769   1.862   7.535       29.06      -68.74       36.50       83.07
  -2.741   6.777   1.857   7.543       28.95      -68.40       36.45       82.74
  -2.745   6.786   1.853   7.551       28.83      -68.06       36.41       82.40
  -2.748   6.794   1.849   7.558       28.72      -67.73       36.37       82.07
  -2.752   6.802   1.844   7.566       28.61      -67.39       36.33       81.73
  -2.755   6.810   1.840   7.573       28.50      -67.06       36.29       81.40
  -2.759   6.819   1.835   7.581       28.39      -66.73       36.25       81.07
  -2.762   6.827   1.831   7.589       28.28      -66.40       36.20       80.74
  -2.766   6.835   1.826   7.596       28.18      -66.07       36.16       80.41
  -2.769   6.843   1.822   7.604       28.07      -65.74       36.12       80.09
  -2.773   6.851   1.817   7.611       27.96      -65.41       36.07       79.76
  -2.776   6.860   1.813   7.619       27.85      -65.09       36.03       79.44
  -2.780   6.868   1.808   7.627       27.74      -64.77       35.99       79.12
  -2.783   6.876   1.804   7.634       27.63      -64.44       35.94       78.79
  -2.787   6.884   1.799   7.642       27.53      -64.12       35.90       78.47
  -2.790   6.892   1.794   7.649       27.42      -63.80       35.86       78.16
  -2.794   6.901   1.790   7.657       27.31      -63.48       35.81       77.84
  -2.797   6.909   1.785   7.664       27.21      -63.17       35.77       77.52
  -2.801   6.917   1.781   7.672       27.10      -62.85       35.72       77.21
  -2.804   6.925   1.776   7.679       26.99      -62.53       35.68       76.89
  -2.808   6.933   1.771   7.687       26.89      -62.22       35.63       76.58
  -2.812   6.941   1.767   7.695       26.78      -61.91       35.59       76.27
  -2.815   6.949   1.762   7.702       26.68      -61.60       35.54       75.96
  -2.819   6.957   1.757   7.710       26.57      -61.29       35.50       75.65
  -2.822   6.966   1.753   7.717       26.47      -60.98       35.45       75.34
  -2.826   6.974   1.748   7.725       26.36      -60.67       35.41       75.03
  -2.829   6.982   1.743   7.732       26.26      -60.36       35.36       74.72
  -2.833   6.990   1.738   7.740       26.16      -60.06       35.32       74.42
  -2.836   6.998   1.734   7.747       26.05      -59.75       35.27       74.11
  -2.840   7.006   1.729   7.755       25.95      -59.45       35.22       73.81
  -2.843   7.014   1.724   7.762       25.84      -59.15       35.18       73.51
  -2.847   7.022   1.719   7.770       25.74      -58.85       35.13       73.21
  -2.850   7.030   1.715   7.777       25.64      -58.55       35.09       72.91
  -2.854   7.038   1.710   7.785       25.54      -58.25       35.04       72.61
  -2.857   7.046   1.705   7.792       25.43      -57.95       34.99       72.31
  -2.861   7.054   1.700   7.800       25.33      -57.65       34.95       72.02
  -2.864   7.062   1.695   7.807       25.23      -57.36       34.90       71.72
  -2.868   7.070   1.690   7.815       25.13      -57.06       34.85       71.43
  -2.871   7.078   1.685   7.822       25.02      -56.77       34.80       71.14
  -2.875   7.086   1.681   7.829       24.92      -56.48       34.76       70.84
  -2.878   7.094   1.676   7.837       24.82      -56.19       34.71       70.55
  -2.882   7.102   1.671   7.844       24.72      -55.90       34.66       70.26
  -2.885   7.110   1.666   7.852       24.62      -55.61       34.62       69.97
  -2.889   7.118   1.661   7.859       24.52      -55.32       34.57       69.69
  -2.892   7.126   1.656   7.867       24.42      -55.03       34.52       69.40
  -2.896   7.134   1.651   7.874       24.32      -54.75       34.47       69.11
  -2.899   7.142   1.646   7.882       24.22      -54.46       34.42       68.83
  -2.903   7.150   1.641   7.889       24.12      -54.18       34.38       68.55
  -2.906   7.157   1.636   7.896       24.02      -53.90       34.33       68.26
  -2.910   7.165   1.631   7.904       23.92      -53.61       34.28       67.98
  -2.913   7.173   1.626   7.911       23.82      -53.33       34.23       67.70
  -2.917   7.181   1.621   7.919       23.72      -53.05       34.18       67.42
  -2.921   7.189   1.616   7.926       23.62      -52.77       34.14       67.14
  -2.924   7.197   1.611   7.933       23.52      -52.50       34.09       66.87
  -2.928   7.205   1.605   7.941       23.42      -52.22       34.04       66.59
  -2.931   7.212   1.600   7.948       23.32      -51.94       33.99       66.31
  -2.935   7.220   1.595   7.955       23.22      -51.67       33.94       66.04
  -2.938   7.228   1.590   7.963       23.12      -51.39       33.89       65.76
  -2.942   7.236   1.585   7.970       23.02      -51.12       33.85       65.49
  -2.945   7.244   1.580   7.978       22.92      -50.85       33.80       65.22
  -2.949   7.252   1.574   7.985       22.83      -50.58       33.75       64.95
  -2.952   7.259   1.569   7.992       22.73      -50.31       33.70       64.68
  -2.956   7.267   1.564   8.000       22.63      -50.04       33.65       64.41
  -2.959   7.275   1.559   8.007       22.53      -49.77       33.60       64.14
  -2.963   7.283   1.554   8.014       22.43      -49.50       33.55       63.87
  -2.966   7.290   1.548   8.022       22.34      -49.24       33.51       63.61
  -2.970   7.298   1.543   8.029       22.24      -48.97       33.46       63.34
  -2.973   7.306   1.538   8.036       22.14      -48.71       33.41       63.08
  -2.977   7.314   1.532   8.043       22.04      -48.44       33.36       62.81
  -2.980   7.321   1.527   8.051       21.95      -48.18       33.31       62.55
  -2.984   7.329   1.522   8.058       21.85      -47.92       33.26       62.29
  -2.987   7.337   1.516   8.065       21.75      -47.65       33.21       62.03
  -2.991   7.344   1.511   8.073       21.66      -47.39       33.16       61.77
  -2.994   7.352   1.506   8.080       21.56      -47.13       33.12       61.51
  -2.998   7.360   1.500   8.087       21.46      -46.88       33.07       61.25
  -3.001   7.367   1.495   8.094       21.36      -46.62       33.02       60.99
  -3.005   7.375   1.489   8.102       21.27      -46.36       32.97       60.73
  -3.008   7.383   1.484   8.109       21.17      -46.10       32.92       60.48
  -3.012   7.390   1.479   8.116       21.07      -45.85       32.87       60.22
  -3.015   7.398   1.473   8.123       20.98      -45.59       32.82       59.97
  -3.019   7.405   1.468   8.131       20.88      -45.34       32.77       59.72
  -3.022   7.413   1.462   8.138       20.78      -45.09       32.73       59.46
  -3.026   7.421   1.457   8.145       20.69      -44.83       32.68       59.21
  -3.029   7.428   1.451   8.152       20.59      -44.58       32.63       58.96
  -3.033   7.436   1.446   8.159       20.50      -44.33       32.58       58.71
  -3.036   7.443   1.440   8.167       20.40      -44.08       32.53       58.46
  -3.040   7.451   1.434   8.174       20.30      -43.83       32.48       58.21
  -3.043   7.458   1.429   8.181       20.21      -43.58       32.43       57.96
  -3.047   7.466   1.423   8.188       20.11      -43.34       32.39       57.72
  -3.050   7.473   1.418   8.195       20.01      -43.09       32.34       57.47
  -3.054   7.481   1.412   8.202       19.92      -42.84       32.29       57.23
  -3.057   7.488   1.406   8.210       19.82      -42.60       32.24       56.98
  -3.061   7.496   1.401   8.217       19.73      -42.35       32.19       56.74
  -3.064   7.503   1.395   8.224       19.63      -42.11       32.14       56.50
  -3.068   7.511   1.389   8.231       19.54      -41.87       32.10       56.25
  -3.071   7.518   1.384   8.238       19.44      -41.62       32.05       56.01
  -3.075   7.526   1.378   8.245       19.34      -41.38       32.00       55.77
  -3.078   7.533   1.372   8.252       19.25      -41.14       31.95       55.53
  -3.081   7.540   1.366   8.259       19.15      -40.90       31.90       55.29
  -3.085   7.548   1.361   8.267       19.06      -40.66       31.86       55.05
  -3.088   7.555   1.355   8.274       18.96      -40.42       31.81       54.82
  -3.092   7.562   1.349   8.281       18.86      -40.18       31.76       54.58
  -3.095   7.570   1.343   8.288       18.77      -39.94       31.71       54.34
  -3.099   7.577   1.337   8.295       18.67      -39.71       31.66       54.11
  -3.102   7.584   1.331   8.302       18.58      -39.47       31.62       53.87
  -3.106   7.592   1.326   8.309       18.48      -39.23       31.57       53.64
  -3.109   7.599   1.320   8.316       18.38      -39.00       31.52       53.41
  -3.113   7.606   1.314   8.323       18.29      -38.76       31.47       53.18
  -3.116   7.614   1.308   8.330       18.19      -38.53       31.43       52.94
  -3.119   7.621   1.302   8.337       18.10      -38.30       31.38       52.71
  -3.123   7.628   1.296   8.344       18.00      -38.06       31.33       52.48
  -3.126   7.635   1.290   8.351       17.90      -37.83       31.29       52.25
  -3.130   7.643   1.284   8.358       17.81      -37.60       31.24       52.03
  -3.133   7.650   1.278   8.365       17.71      -37.37       31.19       51.80
  -3.137   7.657   1.272   8.372       17.62      -37.14       31.14       51.57
  -3.140   7.664   1.266   8.379       17.52      -36.91       31.10       51.34
  -3.143   7.672   1.260   8.386       17.42      -36.68       31.05       51.12
  -3.147   7.679   1.254   8.393       17.33      -36.45       31.01       50.89
  -3.150   7.686   1.248   8.400       17.23      -36.22       30.96       50.67
  -3.154   7.693   1.241   8.406       17.14      -35.99       30.91       50.45
  -3.157   7.700   1.235   8.413       17.04      -35.77       30.87       50.22
  -3.160   7.707   1.229   8.420       16.94      -35.54       30.82       50.00
  -3.164   7.714   1.223   8.427       16.85      -35.31       30.77       49.78
  -3.167   7.721   1.217   8.434       16.75      -35.09       30.73       49.56
  -3.171   7.728   1.211   8.441       16.65      -34.86       30.68       49.34
  -3.174   7.736   1.204   8.448       16.56      -34.64       30.64       49.12
  -3.177   7.743   1.198   8.454       16.46      -34.41       30.59       48.90
  -3.181   7.750   1.192   8.461       16.36      -34.19       30.55       48.68
  -3.184   7.757   1.186   8.468       16.26      -33.97       30.50       48.46
  -3.187   7.764   1.179   8.475       16.17      -33.75       30.46       48.25
  -3.191   7.771   1.173   8.482       16.07      -33.52       30.41       48.03
  -3.194   7.778   1.167   8.488       15.97      -33.30       30.37       47.82
  -3.197   7.785   1.160   8.495       15.88      -33.08       30.32       47.60
  -3.201   7.791   1.154   8.502       15.78      -32.86       30.28       47.39
  -3.204   7.798   1.148   8.509       15.68      -32.64       30.23       47.17
  -3.207   7.805   1.141   8.515       15.58      -32.42       30.19       46.96
  -3.211   7.812   1.135   8.522       15.49      -32.20       30.14       46.75
  -3.214   7.819   1.128   8.529       15.39      -31.98       30.10       46.54
  -3.217   7.826   1.122   8.536       15.29      -31.77       30.06       46.33
  -3.221   7.833   1.115   8.542       15.19      -31.55       30.01       46.12
  -3.224   7.840   1.109   8.549       15.09      -31.33       29.97       45.91
  -3.227   7.846   1.102   8.555       15.00      -31.11       29.92       45.70
  -3.230   7.853   1.096   8.562       14.90      -30.90       29.88       45.49
  -3.234   7.860   1.089   8.569       14.80      -30.68       29.84       45.28
  -3.237   7.867   1.082   8.575       14.70      -30.46       29.79       45.08
  -3.240   7.874   1.076   8.582       14.60      -30.25       29.75       44.87
  -3.243   7.880   1.069   8.589       14.50      -30.03       29.71       44.67
  -3.247   7.887   1.062   8.595       14.40      -29.82       29.67       44.46
  -3.250   7.894   1.056   8.602       14.30      -29.61       29.62       44.26
  -3.253   7.900   1.049   8.608       14.20      -29.39       29.58       44.05
  -3.256   7.907   1.042   8.615       14.10      -29.18       29.54       43.85
  -3.260   7.914   1.036   8.621       14.00      -28.96       29.50       43.65
  -3.263   7.920   1.029   8.628       13.91      -28.75       29.46       43.45
  -3.266   7.927   1.022   8.634       13.81      -28.54       29.41       43.25
  -3.269   7.934   1.015   8.641       13.70      -28.33       29.37       43.05
  -3.272   7.940   1.008   8.647       13.60      -28.12       29.33       42.85
  -3.276   7.947   1.002   8.653       13.50      -27.90       29.29       42.65
  -3.279   7.953   0.995   8.660       13.40      -27.69       29.25       42.45
  -3.282   7.960   0.988   8.666       13.30      -27.48       29.21       42.25
  -3.285   7.966   0.981   8.673       13.20      -27.27       29.17       42.06
  -3.288   7.973   0.974   8.679       13.10      -27.06       29.13       41.86
  -3.291   7.979   0.967   8.685       13.00      -26.85       29.09       41.67
  -3.294   7.986   0.960   8.692       12.90      -26.64       29.05       41.47
  -3.297   7.992   0.953   8.698       12.80      -26.43       29.01       41.28
  -3.301   7.998   0.946   8.704       12.69      -26.22       28.97       41.08
  -3.304   8.005   0.939   8.710       12.59      -26.01       28.93       40.89
  -3.307   8.011   0.932   8.717       12.49      -25.80       28.89       40.70
  -3.310   8.017   0.925   8.723       12.39      -25.60       28.85       40.51
  -3.313   8.024   0.918   8.729       12.28      -25.39       28.81       40.32
  -3.316   8.030   0.910   8.735       12.18      -25.18       28.77       40.13
  -3.319   8.036   0.903   8.741       12.08      -24.97       28.73       39.94
  -3.322   8.043   0.896   8.748       11.97      -24.76       28.70       39.75
  -3.325   8.049   0.889   8.754       11.87      -24.56       28.66       39.56
  -3.328   8.055   0.881   8.760       11.77      -24.35       28.62       39.38
  -3.331   8.061   0.874   8.766       11.66      -24.14       28.58       39.19
  -3.334   8.067   0.867   8.772       11.56      -23.94       28.54       39.00
  -3.337   8.073   0.860   8.778       11.45      -23.73       28.51       38.82
  -3.340   8.079   0.852   8.784       11.35      -23.52       28.47       38.64
  -3.343   8.086   0.845   8.790       11.24      -23.32       28.43       38.45
  -3.346   8.092   0.837   8.796       11.14      -23.11       28.40       38.27
  -3.349   8.098   0.830   8.802       11.03      -22.91       28.36       38.09
  -3.351   8.104   0.823   8.808       10.93      -22.70       28.32       37.91
  -3.354   8.110   0.815   8.814       10.82      -22.50       28.29       37.73
  -3.357   8.116   0.808   8.820       10.72      -22.29       28.25       37.55
  -3.360   8.121   0.800   8.825       10.61      -22.08       28.22       37.37
  -3.363   8.127   0.792   8.831       10.50      -21.88       28.18       37.19
  -3.366   8.133   0.785   8.837       10.40      -21.67       28.15       37.01
  -3.368   8.139   0.777   8.843       10.29      -21.47       28.11       36.84
  -3.371   8.145   0.770   8.849       10.18      -21.27       28.08       36.66
  -3.374   8.151   0.762   8.854       10.07      -21.06       28.04       36.49
  -3.377   8.156   0.754   8.860        9.97      -20.86       28.01       36.32
  -3.380   8.162   0.746   8.866        9.86      -20.65       27.97       36.14
  -3.382   8.168   0.739   8.871        9.75      -20.45       27.94       35.97
  -3.385   8.174   0.731   8.877        9.64      -20.24       27.91       35.80
  -3.388   8.179   0.723   8.882        9.53      -20.04       27.87       35.63
  -3.390   8.185   0.715   8.888        9.42      -19.83       27.84       35.46
  -3.393   8.190   0.707   8.894        9.31      -19.63       27.81       35.29
  -3.396   8.196   0.700   8.899        9.20      -19.43       27.78       35.12
  -3.398   8.201   0.692   8.904        9.09      -19.22       27.74       34.96
  -3.401   8.207   0.684   8.910        8.98      -19.02       27.71       34.79
  -3.403   8.212   0.676   8.915        8.87      -18.81       27.68       34.63
  -3.406   8.218   0.668   8.921        8.76      -18.61       27.65       34.46
  -3.408   8.223   0.660   8.926        8.65      -18.41       27.62       34.30
  -3.411   8.229   0.652   8.931        8.54      -18.20       27.59       34.14
  -3.413   8.234   0.643   8.937        8.43      -18.00       27.56       33.98
  -3.416   8.239   0.635   8.942        8.31      -17.79       27.53       33.82
  -3.418   8.244   0.627   8.947        8.20      -17.59       27.50       33.66
  -3.421   8.250   0.619   8.952        8.09      -17.39       27.47       33.50
  -3.423   8.255   0.611   8.957        7.97      -17.18       27.44       33.34
  -3.426   8.260   0.603   8.962        7.86      -16.98       27.41       33.19
  -3.428   8.265   0.594   8.967        7.75      -16.78       27.38       33.03
  -3.430   8.270   0.586   8.972        7.63      -16.57       27.35       32.88
  -3.433   8.275   0.578   8.977        7.52      -16.37       27.32       32.73
  -3.435   8.280   0.569   8.982        7.40      -16.16       27.30       32.57
  -3.437   8.285   0.561   8.987        7.29      -15.96       27.27       32.42
  -3.439   8.290   0.552   8.992        7.17      -15.75       27.24       32.28
  -3.442   8.295   0.544   8.997        7.06      -15.55       27.21       32.13
  -3.444   8.300   0.536   9.002        6.94      -15.35       27.19       31.98
  -3.446   8.304   0.527   9.006        6.83      -15.14       27.16       31.84
  -3.448   8.309   0.518   9.011        6.71      -14.94       27.13       31.69
  -3.450   8.314   0.510   9.016        6.59      -14.73       27.11       31.55
  -3.452   8.318   0.501   9.020        6.47      -14.53       27.08       31.41
  -3.454   8.323   0.493   9.025        6.36      -14.32       27.06       31.27
  -3.456   8.328   0.484   9.029        6.24      -14.12       27.03       31.13
  -3.458   8.332   0.475   9.034        6.12      -13.91       27.01       30.99
  -3.460   8.337   0.467   9.038        6.00      -13.71       26.98       30.85
  -3.462   8.341   0.458   9.043        5.88      -13.50       26.96       30.72
  -3.464   8.345   0.449   9.047        5.76      -13.30       26.94       30.59
  -3.466   8.350   0.440   9.051        5.64      -13.09       26.91       30.46
  -3.468   8.354   0.431   9.055        5.52      -12.89       26.89       30.32
  -3.470   8.358   0.422   9.060        5.40      -12.68       26.87       30.20
  -3.471   8.362   0.414   9.064        5.28      -12.47       26.84       30.07
  -3.473   8.366   0.405   9.068        5.16      -12.27       26.82       29.94
  -3.475   8.371   0.396   9.072        5.04      -12.06       26.80       29.82
  -3.476   8.375   0.387   9.076        4.92      -11.86       26.78       29.70
  -3.478   8.379   0.378   9.080        4.80      -11.65       26.76       29.58
  -3.480   8.382   0.368   9.083        4.68      -11.44       26.74       29.46
  -3.481   8.386   0.359   9.087        4.55      -11.23       26.72       29.34
  -3.483   8.390   0.350   9.091        4.43      -11.03       26.70       29.22
  -3.484   8.394   0.341   9.095        4.31      -10.82       26.68       29.11
  -3.486   8.398   0.332   9.098        4.18      -10.61       26.66       29.00
  -3.487   8.401   0.323   9.102        4.06      -10.41       26.64       28.89
  -3.489   8.405   0.314   9.105        3.94      -10.20       26.62       28.78
  -3.490   8.408   0.304   9.109        3.81       -9.99       26.60       28.67
  -3.491   8.412   0.295   9.112        3.69       -9.78       26.59       28.57
  -3.492   8.415   0.286   9.116        3.55       -9.58       26.57       28.47
  -3.494   8.418   0.276   9.119        3.41       -9.38       26.55       28.36
  -3.495   8.422   0.267   9.122        3.27       -9.17       26.53       28.26
  -3.496   8.425   0.258   9.125        3.13       -8.97       26.52       28.17
  -3.497   8.428   0.248   9.128        2.99       -8.77       26.50       28.07
  -3.498   8.431   0.239   9.131        2.85       -8.56       26.48       27.98
  -3.499   8.434   0.229   9.134        2.71       -8.36       26.47       27.89
  -3.500   8.437   0.220   9.137        2.57       -8.16       26.45       27.80
  -3.501   8.440   0.210   9.140        2.43       -7.95       26.44       27.71
  -3.502   8.443   0.201   9.143        2.28       -7.75       26.42       27.63
  -3.503   8.446   0.191   9.145        2.14       -7.55       26.41       27.55
  -3.503   8.448   0.181   9.148        2.00       -7.34       26.39       27.47
  -3.504   8.451   0.172   9.150        1.86       -7.14       26.38       27.39
  -3.505   8.454   0.162   9.153        1.71       -6.94       26.36       27.32
  -3.505   8.456   0.152   9.155        1.55       -6.74       26.35       27.24
  -3.506   8.459   0.143   9.157        1.40       -6.53       26.34       27.17
  -3.506   8.461   0.133   9.160        1.25       -6.33       26.33       27.11
  -3.507   8.463   0.123   9.162        1.09       -6.13       26.31       27.04
  -3.507   8.465   0.114   9.164        0.94       -5.93       26.30       26.98
  -3.508   8.468   0.104   9.166        0.78       -5.73       26.29       26.92
  -3.508   8.470   0.094   9.168        0.63       -5.53       26.28       26.86
  -3.508   8.472   0.084   9.170        0.47       -5.33       26.27       26.81
  -3.508   8.474   0.074   9.171        0.32       -5.13       26.26       26.76
  -3.508   8.476   0.065   9.173        0.16       -4.92       26.25       26.71
  -3.508   8.477   0.055   9.175        0.01       -4.72       26.24       26.66
  -3.508   8.479   0.045   9.176       -0.15       -4.52       26.23       26.62
  -3.508   8.481   0.035   9.178       -0.31       -4.32       26.22       26.58
  -3.508   8.482   0.025   9.179       -0.46       -4.12       26.22       26.54
  -3.508   8.484   0.015   9.180       -0.62       -3.91       26.21       26.51
  -3.508   8.485   0.005   9.182       -0.78       -3.71       26.20       26.48
  -3.507   8.487  -0.004   9.183       -0.94       -3.51       26.20       26.45
  -3.507   8.488  -0.014   9.184       -1.10       -3.31       26.19       26.42
  -3.506   8.489  -0.024   9.185       -1.25       -3.11       26.19       26.40
  -3.506   8.490  -0.034   9.186       -1.41       -2.91       26.18       26.38
  -3.505   8.491  -0.044   9.187       -1.57       -2.70       26.18       26.36
  -3.505   8.492  -0.054   9.187       -1.73       -2.50       26.17       26.35
  -3.504   8.493  -0.064   9.188       -1.89       -2.30       26.17       26.34
  -3.503   8.494  -0.074   9.188       -2.05       -2.10       26.17       26.33
  -3.502   8.495  -0.084   9.189       -2.21       -1.90       26.17       26.33
  -3.502   8.496  -0.094   9.189       -2.37       -1.69       26.16       26.33
  -3.501   8.496  -0.104   9.190       -2.53       -1.49       26.16       26.33
  -3.500   8.497  -0.114   9.190       -2.69       -1.29       26.16       26.33
  -3.499   8.497  -0.124   9.190       -2.85       -1.09       26.16       26.34
  -3.497   8.497  -0.134   9.190       -3.01       -0.89       26.16       26.35
  -3.496   8.498  -0.143   9.190       -3.17       -0.69       26.16       26.36
  -3.495   8.498  -0.153   9.190       -3.33       -0.48       26.16       26.38
  -3.494   8.498  -0.163   9.190       -3.49       -0.28       26.17       26.40
  -3.492   8.498  -0.173   9.190       -3.65       -0.08       26.17       26.42
  -3.491   8.498  -0.183   9.189       -3.81        0.12       26.17       26.45
  -3.490   8.498  -0.193   9.189       -3.97        0.32       26.17       26.47
  -3.488   8.498  -0.203   9.188       -4.13        0.52       26.18       26.51
  -3.486   8.498  -0.213   9.188       -4.29        0.72       26.18       26.54
  -3.485   8.497  -0.223   9.187       -4.45        0.92       26.18       26.58
  -3.483   8.497  -0.232   9.186       -4.61        1.12       26.19       26.62
  -3.481   8.497  -0.242   9.185       -4.77        1.33       26.19       26.66
  -3.480   8.496  -0.252   9.184       -4.93        1.53       26.20       26.70
  -3.478   8.495  -0.262   9.183       -5.09        1.73       26.21       26.75
  -3.476   8.495  -0.272   9.182       -5.25        1.93       26.21       26.80
  -3.474   8.494  -0.281   9.181       -5.41        2.13       26.22       26.86
  -3.472   8.493  -0.291   9.180       -5.56        2.33       26.23       26.91
  -3.470   8.492  -0.301   9.179       -5.72        2.53       26.24       26.97
  -3.467   8.491  -0.311   9.177       -5.88        2.72       26.24       27.03
  -3.465   8.490  -0.320   9.176       -6.04        2.92       26.25       27.10
  -3.463   8.489  -0.330   9.174       -6.20        3.12       26.26       27.16
  -3.461   8.488  -0.340   9.173       -6.36        3.32       26.27       27.23
  -3.458   8.487  -0.349   9.171       -6.52        3.52       26.28       27.31
  -3.456   8.485  -0.359   9.169       -6.67        3.72       26.29       27.38
  -3.453   8.484  -0.369   9.167       -6.83        3.92       26.30       27.46
  -3.451   8.483  -0.378   9.165       -6.99        4.12       26.31       27.54
  -3.448   8.481  -0.388   9.163       -7.15        4.31       26.33       27.62
  -3.446   8.479  -0.397   9.161       -7.30        4.51       26.34       27.70
  -3.443   8.478  -0.407   9.159       -7.46        4.71       26.35       27.79
  -3.440   8.476  -0.416   9.157       -7.62        4.91       26.36       27.88
  -3.438   8.474  -0.426   9.155       -7.77        5.10       26.38       27.97
  -3.435   8.472  -0.435   9.153       -7.93        5.30       26.39       28.06
  -3.432   8.470  -0.444   9.150       -8.08        5.50       26.41       28.16
  -3.429   8.468  -0.454   9.148       -8.24        5.69       26.42       28.25
  -3.426   8.466  -0.463   9.145       -8.39        5.89       26.43       28.35
  -3.423   8.464  -0.472   9.143       -8.55        6.09       26.45       28.45
  -3.420   8.462  -0.482   9.140       -8.70        6.28       26.46       28.56
  -3.417   8.460  -0.491   9.137       -8.86        6.48       26.48       28.66
  -3.414   8.458  -0.500   9.134       -9.01        6.67       26.50       28.77
  -3.411   8.455  -0.509   9.132       -9.16        6.87       26.51       28.88
  -3.408   8.453  -0.519   9.129       -9.32        7.06       26.53       28.99
  -3.404   8.450  -0.528   9.126       -9.47        7.26       26.55       29.11
  -3.401   8.448  -0.537   9.123       -9.62        7.45       26.57       29.22
  -3.398   8.445  -0.546   9.120       -9.77        7.65       26.58       29.34
  -3.394   8.443  -0.555   9.116       -9.93        7.84       26.60       29.46
  -3.391   8.440  -0.564   9.113      -10.08        8.04       26.62       29.58
  -3.388   8.437  -0.573   9.110      -10.23        8.23       26.64       29.70
  -3.384   8.434  -0.582   9.107      -10.38        8.43       26.66       29.82
  -3.381   8.432  -0.591   9.103      -10.53        8.62       26.68       29.95
  -3.377   8.429  -0.600   9.100      -10.68        8.81       26.70       30.07
  -3.374   8.426  -0.609   9.096      -10.83        9.01       26.72       30.20
  -3.370   8.423  -0.617   9.093      -10.98        9.20       26.74       30.33
  -3.366   8.420  -0.626   9.089      -11.13        9.39       26.76       30.46
  -3.363   8.417  -0.635   9.086      -11.27        9.59       26.78       30.60
  -3.359   8.413  -0.644   9.082      -11.42        9.78       26.80       30.73
  -3.355   8.410  -0.652   9.078      -11.57        9.97       26.82       30.87
  -3.351   8.407  -0.661   9.074      -11.72       10.16       26.85       31.00
  -3.348   8.404  -0.670   9.071      -11.86       10.36       26.87       31.14
  -3.344   8.400  -0.678   9.067      -12.01       10.55       26.89       31.28
  -3.340   8.397  -0.687   9.063      -12.16       10.74       26.91       31.42
  -3.336   8.393  -0.695   9.059      -12.30       10.93       26.94       31.57
  -3.332   8.390  -0.704   9.055      -12.45       11.12       26.96       31.71
  -3.328   8.386  -0.712   9.051      -12.59       11.31       26.98       31.85
  -3.324   8.383  -0.721   9.047      -12.74       11.51       27.01       32.00
  -3.320   8.379  -0.729   9.043      -12.88       11.70       27.03       32.15
  -3.316   8.376  -0.738   9.038      -13.03       11.89       27.05       32.30
  -3.312   8.372  -0.746   9.034      -13.17       12.08       27.08       32.45
  -3.308   8.368  -0.754   9.030      -13.31       12.27       27.10       32.59
  -3.304   8.364  -0.763   9.026      -13.44       12.47       27.13       32.74
  -3.300   8.361  -0.771   9.021      -13.58       12.66       27.16       32.90
  -3.296   8.357  -0.779   9.017      -13.71       12.86       27.18       33.05
  -3.292   8.353  -0.787   9.012      -13.85       13.05       27.21       33.20
  -3.287   8.349  -0.796   9.008      -13.98       13.24       27.23       33.36
  -3.283   8.345  -0.804   9.003      -14.12       13.44       27.26       33.51
  -3.279   8.341  -0.812   8.999      -14.25       13.63       27.29       33.67
  -3.275   8.337  -0.820   8.994      -14.39       13.82       27.31       33.82
  -3.271   8.333  -0.828   8.990      -14.52       14.02       27.34       33.98
  -3.266   8.328  -0.836   8.985      -14.65       14.21       27.37       34.14
  -3.262   8.324  -0.844   8.980      -14.78       14.40       27.40       34.30
  -3.258   8.320  -0.852   8.976      -14.92       14.60       27.42       34.46
  -3.253   8.316  -0.860   8.971      -15.05       14.79       27.45       34.62
  -3.249   8.312  -0.868   8.966      -15.18       14.98       27.48       34.79
  -3.245   8.307  -0.876   8.961      -15.31       15.18       27.51       34.95
  -3.240   8.303  -0.884   8.956      -15.44       15.37       27.54       35.11
  -3.236   8.298  -0.891   8.951      -15.56       15.57       27.56       35.28
  -3.231   8.294  -0.899   8.947      -15.68       15.77       27.59       35.44
  -3.227   8.290  -0.907   8.942      -15.80       15.96       27.62       35.60
  -3.222   8.285  -0.915   8.937      -15.92       16.16       27.65       35.77
  -3.218   8.280  -0.922   8.932      -16.04       16.36       27.68       35.93
  -3.214   8.276  -0.930   8.927      -16.16       16.56       27.71       36.10
  -3.209   8.271  -0.938   8.921      -16.28       16.75       27.74       36.27
  -3.205   8.267  -0.945   8.916      -16.40       16.95       27.77       36.43
  -3.200   8.262  -0.953   8.911      -16.52       17.15       27.80       36.60
  -3.196   8.257  -0.961   8.906      -16.63       17.35       27.83       36.77
  -3.191   8.253  -0.968   8.901      -16.75       17.54       27.86       36.94
  -3.186   8.248  -0.976   8.896      -16.87       17.74       27.89       37.11
  -3.182   8.243  -0.983   8.890      -16.99       17.94       27.93       37.28
  -3.177   8.238  -0.991   8.885      -17.10       18.14       27.96       37.46
  -3.173   8.233  -0.998   8.880      -17.22       18.33       27.99       37.63
  -3.168   8.228  -1.006   8.874      -17.34       18.53       28.02       37.80
  -3.164   8.224  -1.013   8.869      -17.46       18.73       28.05       37.98
  -3.159   8.219  -1.020   8.864      -17.57       18.93       28.08       38.15
  -3.154   8.214  -1.028   8.858      -17.69       19.12       28.11       38.33
  -3.150   8.209  -1.035   8.853      -17.81       19.32       28.15       38.51
  -3.145   8.204  -1.042   8.847      -17.92       19.52       28.18       38.68
  -3.141   8.199  -1.050   8.842      -18.04       19.72       28.21       38.86
  -3.136   8.193  -1.057   8.836      -18.16       19.92       28.24       39.04
  -3.131   8.188  -1.064   8.831      -18.27       20.12       28.28       39.22
  -3.127   8.183  -1.071   8.825      -18.39       20.31       28.31       39.40
  -3.122   8.178  -1.078   8.820      -18.50       20.51       28.34       39.58
  -3.117   8.173  -1.086   8.814      -18.62       20.71       28.37       39.76
  -3.113   8.168  -1.093   8.809      -18.73       20.91       28.41       39.94
  -3.108   8.162  -1.100   8.803      -18.85       21.11       28.44       40.12
  -3.103   8.157  -1.107   8.797      -18.96       21.31       28.47       40.30
  -3.098   8.152  -1.114   8.792      -19.08       21.51       28.51       40.49
  -3.094   8.146  -1.121   8.786      -19.19       21.71       28.54       40.67
  -3.089   8.141  -1.128   8.780      -19.31       21.91       28.57       40.86
  -3.084   8.136  -1.135   8.774      -19.42       22.11       28.61       41.04
  -3.080   8.130  -1.142   8.769      -19.54       22.31       28.64       41.23
  -3.075   8.125  -1.149   8.763      -19.65       22.51       28.68       41.41
  -3.070   8.119  -1.156   8.757      -19.76       22.71       28.71       41.60
  -3.065   8.114  -1.163   8.751      -19.88       22.91       28.74       41.79
  -3.061   8.108  -1.170   8.745      -19.99       23.11       28.78       41.97
  -3.056   8.103  -1.176   8.740      -20.10       23.31       28.81       42.16
  -3.051   8.097  -1.183   8.734      -20.22       23.51       28.85       42.35
  -3.046   8.092  -1.190   8.728      -20.33       23.71       28.88       42.54
  -3.041   8.086  -1.197   8.722      -20.44       23.91       28.92       42.73
  -3.037   8.081  -1.204   8.716      -20.56       24.12       28.95       42.92
  -3.032   8.075  -1.210   8.710      -20.67       24.32       28.99       43.11
  -3.027   8.069  -1.217   8.704      -20.78       24.52       29.02       43.31
  -3.022   8.064  -1.224   8.698      -20.89       24.72       29.06       43.50
  -3.017   8.058  -1.230   8.692      -21.01       24.93       29.09       43.69
  -3.013   8.052  -1.237   8.686      -21.12       25.13       29.13       43.89
  -3.008   8.047  -1.244   8.680      -21.23       25.33       29.16       44.08
  -3.003   8.041  -1.250   8.674      -21.34       25.54       29.20       44.27
  -2.998   8.035  -1.257   8.668      -21.46       25.74       29.23       44.47
  -2.993   8.029  -1.263   8.662      -21.57       25.95       29.27       44.67
  -2.989   8.023  -1.270   8.656      -21.68       26.15       29.31       44.86
  -2.984   8.018  -1.276   8.649      -21.79       26.36       29.34       45.06
  -2.979   8.012  -1.283   8.643      -21.90       26.56       29.38       45.26
  -2.974   8.006  -1.289   8.637      -22.01       26.77       29.41       45.46
  -2.969   8.000  -1.296   8.631      -22.13       26.97       29.45       45.65
  -2.964   7.994  -1.302   8.625      -22.24       27.18       29.49       45.85
  -2.959   7.988  -1.309   8.619      -22.35       27.38       29.52       46.05
  -2.955   7.982  -1.315   8.612      -22.46       27.59       29.56       46.25
  -2.950   7.976  -1.322   8.606      -22.57       27.80       29.60       46.45
  -2.945   7.970  -1.328   8.600      -22.68       28.01       29.63       46.66
  -2.940   7.964  -1.334   8.594      -22.79       28.21       29.67       46.86
  -2.935   7.958  -1.341   8.587      -22.90       28.42       29.71       47.06
  -2.930   7.952  -1.347   8.581      -23.01       28.63       29.74       47.26
  -2.925   7.946  -1.353   8.575      -23.12       28.84       29.78       47.47
  -2.921   7.940  -1.359   8.569      -23.23       29.05       29.82       47.67
  -2.916   7.934  -1.366   8.562      -23.34       29.26       29.85       47.88
  -2.911   7.928  -1.372   8.556      -23.45       29.47       29.89       48.08
  -2.906   7.922  -1.378   8.550      -23.56       29.68       29.93       48.29
  -2.901   7.915  -1.384   8.543      -23.67       29.89       29.96       48.50
  -2.896   7.909  -1.390   8.537      -23.78       30.10       30.00       48.70
  -2.891   7.903  -1.397   8.530      -23.89       30.31       30.04       48.91
  -2.886   7.897  -1.403   8.524      -24.00       30.53       30.08       49.12
  -2.881   7.891  -1.409   8.518      -24.11       30.74       30.11       49.33
  -2.877   7.884  -1.415   8.511      -24.22       30.95       30.15       49.54
  -2.872   7.878  -1.421   8.505      -24.33       31.17       30.19       49.75
  -2.867   7.872  -1.427   8.498      -24.44       31.38       30.23       49.96
  -2.862   7.866  -1.433   8.492      -24.55       31.59       30.26       50.17
  -2.857   7.859  -1.439   8.485      -24.66       31.81       30.30       50.38
  -2.852   7.853  -1.445   8.479      -24.77       32.02       30.34       50.59
  -2.847   7.847  -1.451   8.472      -24.88       32.24       30.38       50.81
  -2.842   7.840  -1.457   8.466      -24.99       32.46       30.42       51.02
  -2.837   7.834  -1.463   8.459      -25.10       32.67       30.45       51.23
  -2.833   7.827  -1.469   8.453      -25.21       32.89       30.49       51.45
  -2.828   7.821  -1.475   8.446      -25.32       33.11       30.53       51.66
  -2.823   7.815  -1.481   8.440      -25.43       33.33       30.57       51.88
  -2.818   7.808  -1.487   8.433      -25.54       33.54       30.61       52.10
  -2.813   7.802  -1.493   8.427      -25.65       33.76       30.64       52.31
  -2.808   7.795  -1.498   8.420      -25.76       33.98       30.68       52.53
  -2.803   7.789  -1.504   8.413      -25.86       34.20       30.72       52.75
  -2.798   7.782  -1.510   8.407      -25.97       34.42       30.76       52.97
  -2.793   7.776  -1.516   8.400      -26.08       34.65       30.80       53.19
  -2.788   7.769  -1.522   8.394      -26.19       34.87       30.83       53.41
  -2.784   7.763  -1.527   8.387      -26.30       35.09       30.87       53.63
  -2.779   7.756  -1.533   8.380      -26.41       35.31       30.91       53.85
  -2.774   7.750  -1.539   8.374      -26.52       35.54       30.95       54.07
  -2.769   7.743  -1.545   8.367      -26.63       35.76       30.99       54.30
  -2.764   7.737  -1.550   8.360      -26.74       35.98       31.03       54.52
  -2.759   7.730  -1.556   8.354      -26.85       36.21       31.06       54.74
  -2.754   7.723  -1.562   8.347      -26.95       36.43       31.10       54.97
  -2.749   7.717  -1.567   8.340      -27.06       36.66       31.14       55.19
  -2.744   7.710  -1.573   8.334      -27.17       36.89       31.18       55.42
  -2.739   7.703  -1.579   8.327      -27.28       37.12       31.22       55.64
  -2.734   7.697  -1.584   8.320      -27.39       37.34       31.26       55.87
  -2.730   7.690  -1.590   8.313      -27.50       37.57       31.29       56.10
  -2.725   7.683  -1.595   8.307      -27.61       37.80       31.33       56.33
  -2.720   7.677  -1.601   8.300      -27.72       38.03       31.37       56.56
  -2.715   7.670  -1.606   8.293      -27.82       38.26       31.41       56.79
  -2.710   7.663  -1.612   8.286      -27.93       38.49       31.45       57.02
  -2.705   7.656  -1.617   8.280      -28.04       38.72       31.49       57.25
  -2.700   7.650  -1.623   8.273      -28.15       38.96       31.52       57.48
  -2.695   7.643  -1.628   8.266      -28.26       39.19       31.56       57.71
  -2.690   7.636  -1.634   8.259      -28.37       39.42       31.60       57.94
  -2.685   7.629  -1.639   8.252      -28.48       39.66       31.64       58.18
  -2.681   7.622  -1.645   8.246      -28.59       39.89       31.68       58.41
  -2.676   7.615  -1.650   8.239      -28.69       40.13       31.72       58.65
  -2.671   7.609  -1.656   8.232      -28.80       40.36       31.76       58.88
  -2.666   7.602  -1.661   8.225      -28.91       40.60       31.79       59.12
  -2.661   7.595  -1.666   8.218      -29.02       40.84       31.83       59.36
  -2.656   7.588  -1.672   8.211      -29.13       41.08       31.87       59.59
  -2.651   7.581  -1.677   8.205      -29.24       41.32       31.91       59.83
  -2.646   7.574  -1.682   8.198      -29.35       41.56       31.95       60.07
  -2.641   7.567  -1.688   8.191      -29.46       41.80       31.98       60.31
  -2.637   7.560  -1.693   8.184      -29.57       42.04       32.02       60.55
  -2.632   7.553  -1.698   8.177      -29.67       42.28       32.06       60.79
  -2.627   7.546  -1.703   8.170      -29.78       42.52       32.10       61.04
  -2.622   7.539  -1.709   8.163      -29.89       42.76       32.14       61.28
  -2.617   7.532  -1.714   8.156      -30.00       43.01       32.17       61.52
  -2.612   7.525  -1.719   8.149      -30.11       43.25       32.21       61.77
  -2.607   7.518  -1.724   8.142      -30.22       43.50       32.25       62.01
  -2.602   7.511  -1.730   8.135      -30.33       43.75       32.29       62.26
  -2.598   7.504  -1.735   8.129      -30.44       43.99       32.33       62.50
  -2.593   7.497  -1.740   8.122      -30.55       44.24       32.36       62.75
  -2.588   7.490  -1.745   8.115      -30.66       44.49       32.40       63.00
  -2.583   7.483  -1.750   8.108      -30.77       44.74       32.44       63.25
  -2.578   7.476  -1.755   8.101      -30.88       44.99       32.48       63.50
  -2.573   7.469  -1.760   8.094      -30.99       45.24       32.51       63.75
  -2.568   7.462  -1.766   8.087      -31.10       45.49       32.55       64.00
  -2.564   7.455  -1.771   8.080      -31.21       45.74       32.59       64.25
  -2.559   7.448  -1.776   8.073      -31.32       46.00       32.63       64.50
  -2.554   7.441  -1.781   8.066      -31.43       46.25       32.66       64.76
  -2.549   7.433  -1.786   8.059      -31.54       46.51       32.70       65.01
  -2.544   7.426  -1.791   8.052      -31.65       46.76       32.74       65.27
  -2.539   7.419  -1.796   8.045      -31.76       47.02       32.77       65.52
  -2.534   7.412  -1.801   8.038      -31.87       47.27       32.81       65.78
  -2.530   7.405  -1.806   8.031      -31.98       47.53       32.85       66.04
  -2.525   7.398  -1.811   8.024      -32.09       47.79       32.88       66.29
  -2.520   7.390  -1.816   8.016      -32.20       48.05       32.92       66.55
  -2.515   7.383  -1.821   8.009      -32.31       48.31       32.96       66.81
  -2.510   7.376  -1.826   8.002      -32.42       48.57       32.99       67.07
  -2.505   7.369  -1.830   7.995      -32.53       48.84       33.03       67.34
  -2.501   7.361  -1.835   7.988      -32.64       49.10       33.07       67.60
  -2.496   7.354  -1.840   7.981      -32.75       49.36       33.10       67.86
  -2.491   7.347  -1.845   7.974      -32.86       49.63       33.14       68.13
  -2.486   7.340  -1.850   7.967      -32.97       49.90       33.17       68.39
  -2.481   7.332  -1.855   7.960      -33.08       50.16       33.21       68.66
  -2.476   7.325  -1.860   7.953      -33.19       50.43       33.25       68.92
  -2.472   7.318  -1.864   7.946      -33.30       50.70       33.28       69.19
  -2.467   7.310  -1.869   7.938      -33.42       50.97       33.32       69.46
  -2.462   7.303  -1.874   7.931      -33.53       51.24       33.35       69.73
  -2.457   7.296  -1.879   7.924      -33.64       51.51       33.39       70.00
  -2.452   7.288  -1.884   7.917      -33.75       51.78       33.42       70.27
  -2.448   7.281  -1.888   7.910      -33.86       52.06       33.46       70.54
  -2.443   7.273  -1.893   7.903      -33.97       52.33       33.49       70.81
  -2.438   7.266  -1.898   7.896      -34.08       52.61       33.53       71.09
  -2.433   7.259  -1.903   7.888      -34.20       52.88       33.56       71.36
  -2.428   7.251  -1.907   7.881      -34.31       53.16       33.60       71.64
  -2.424   7.244  -1.912   7.874      -34.42       53.44       33.63       71.91
  -2.419   7.236  -1.917   7.867      -34.53       53.72       33.66       72.19
  -2.414   7.229  -1.921   7.860      -34.65       54.00       33.70       72.47
  -2.409   7.221  -1.926   7.853      -34.76       54.28       33.73       72.75
  -2.405   7.214  -1.930   7.845      -34.87       54.56       33.77       73.03
  -2.400   7.207  -1.935   7.838      -34.98       54.84       33.80       73.31
  -2.395   7.199  -1.940   7.831      -35.10       55.13       33.83       73.59
  -2.390   7.192  -1.944   7.824      -35.21       55.41       33.87       73.87
  -2.385   7.184  -1.949   7.817      -35.32       55.70       33.90       74.16
  -2.381   7.177  -1.953   7.809      -35.44       55.99       33.93       74.44
  -2.376   7.169  -1.958   7.802      -35.55       56.28       33.96       74.73
  -2.371   7.161  -1.963   7.795      -35.66       56.57       34.00       75.02
  -2.366   7.154  -1.967   7.788      -35.78       56.86       34.03       75.30
  -2.362   7.146  -1.972   7.780      -35.89       57.15       34.06       75.59
  -2.357   7.139  -1.976   7.773      -36.01       57.44       34.09       75.88
  -2.352   7.131  -1.981   7.766      -36.12       57.73       34.12       76.17
  -2.347   7.124  -1.985   7.759      -36.23       58.03       34.16       76.46
  -2.343   7.116  -1.989   7.751      -36.35       58.32       34.19       76.76
  -2.338   7.108  -1.994   7.744      -36.46       58.62       34.22       77.05
  -2.333   7.101  -1.998   7.737      -36.58       58.92       34.25       77.35
  -2.329   7.093  -2.003   7.730      -36.69       59.22       34.28       77.64
  -2.324   7.086  -2.007   7.722      -36.81       59.52       34.31       77.94
  -2.319   7.078  -2.012   7.715      -36.92       59.82       34.34       78.24
  -2.314   7.070  -2.016   7.708      -37.04       60.12       34.37       78.54
  -2.310   7.063  -2.020   7.700      -37.15       60.43       34.40       78.84
  -2.305   7.055  -2.025   7.693      -37.27       60.73       34.43       79.14
  -2.300   7.047  -2.029   7.686      -37.39       61.04       34.46       79.44
  -2.296   7.040  -2.033   7.679      -37.50       61.34       34.49       79.74
  -2.291   7.032  -2.038   7.671      -37.62       61.65       34.52       80.05
  -2.286   7.024  -2.042   7.664      -37.73       61.96       34.55       80.35
  -2.281   7.016  -2.046   7.657      -37.85       62.27       34.57       80.66
  -2.277   7.009  -2.051   7.649      -37.97       62.58       34.60       80.97
  -2.272   7.001  -2.055   7.642      -38.09       62.90       34.63       81.28
  -2.267   6.993  -2.059   7.635      -38.20       63.21       34.66       81.59
  -2.263   6.986  -2.063   7.627      -38.32       63.53       34.69       81.90
  -2.258   6.978  -2.068   7.620      -38.44       63.84       34.71       82.21
  -2.253   6.970  -2.072   7.613      -38.56       64.16       34.74       82.52
  -2.249   6.962  -2.076   7.605      -38.67       64.48       34.77       82.84
  -2.244   6.954  -2.080   7.598      -38.79       64.80       34.79       83.15
  -2.239   6.947  -2.084   7.590      -38.91       65.12       34.82       83.47
  -2.235   6.939  -2.089   7.583      -39.03       65.45       34.84       83.79
  -2.230   6.931  -2.093   7.576      -39.15       65.77       34.87       84.11
  -2.225   6.923  -2.097   7.568      -39.27       66.10       34.90       84.43
  -2.221   6.915  -2.101   7.561      -39.38       66.42       34.92       84.75
  -2.216   6.907  -2.105   7.554      -39.50       66.75       34.94       85.07
  -2.211   6.900  -2.109   7.546      -39.62       67.08       34.97       85.40
  -2.207   6.892  -2.113   7.539      -39.74       67.41       34.99       85.72
  -2.202   6.884  -2.117   7.531      -39.86       67.74       35.02       86.05
  -2.198   6.876  -2.121   7.524      -39.98       68.07       35.04       86.37
  -2.193   6.868  -2.125   7.516      -40.10       68.41       35.06       86.70
  -2.188   6.860  -2.129   7.509      -40.22       68.74       35.09       87.03
  -2.184   6.852  -2.134   7.502      -40.34       69.08       35.11       87.36
  -2.179   6.844  -2.138   7.494      -40.47       69.42       35.13       87.70
  -2.174   6.837  -2.142   7.487      -40.59       69.76       35.15       88.03
  -2.170   6.829  -2.146   7.479      -40.71       70.10       35.17       88.37
  -2.165   6.821  -2.149   7.472      -40.83       70.44       35.20       88.70
  -2.161   6.813  -2.153   7.464      -40.95       70.79       35.22       89.04
  -2.156   6.805  -2.157   7.457      -41.07       71.13       35.24       89.38
  -2.151   6.797  -2.161   7.450      -41.20       71.48       35.26       89.72
  -2.147   6.789  -2.165   7.442      -41.32       71.83       35.28       90.06
  -2.142   6.781  -2.169   7.435      -41.44       72.18       35.30       90.40
  -2.138   6.773  -2.173   7.427      -41.56       72.53       35.32       90.75
  -2.133   6.765  -2.177   7.420      -41.69       72.88       35.33       91.09
  -2.129   6.757  -2.181   7.412      -41.81       73.23       35.35       91.44
  -2.124   6.749  -2.185   7.405      -41.94       73.59       35.37       91.79
  -2.119   6.741  -2.189   7.397      -42.06       73.95       35.39       92.14
  -2.115   6.733  -2.192   7.390      -42.18       74.30       35.41       92.49
  -2.110   6.725  -2.196   7.382      -42.31       74.66       35.42       92.84
  -2.106   6.717  -2.200   7.375      -42.43       75.02       35.44       93.19
  -2.101   6.709  -2.204   7.367      -42.56       75.39       35.45       93.55
  -2.097   6.701  -2.208   7.360      -42.68       75.75       35.47       93.91
  -2.092   6.693  -2.211   7.352      -42.81       76.12       35.49       94.26
  -2.088   6.684  -2.215   7.345      -42.94       76.48       35.50       94.62
  -2.083   6.676  -2.219   7.337      -43.06       76.85       35.52       94.98
  -2.078   6.668  -2.223   7.330      -43.19       77.22       35.53       95.35
  -2.074   6.660  -2.226   7.322      -43.32       77.59       35.54       95.71
  -2.069   6.652  -2.230   7.315      -43.44       77.97       35.56       96.07
  -2.065   6.644  -2.234   7.307      -43.57       78.34       35.57       96.44
  -2.060   6.636  -2.237   7.300      -43.70       78.72       35.58       96.81
  -2.056   6.628  -2.241   7.292      -43.82       79.10       35.59       97.18
  -2.051   6.620  -2.245   7.285      -43.95       79.48       35.60       97.55
  -2.047   6.611  -2.248   7.277      -44.08       79.86       35.62       97.92
  -2.042   6.603  -2.252   7.269      -44.21       80.24       35.63       98.30
  -2.038   6.595  -2.256   7.262      -44.34       80.62       35.64       98.67
  -2.033   6.587  -2.259   7.254      -44.47       81.01       35.65       99.05
  -2.029   6.579  -2.263   7.247      -44.60       81.40       35.66       99.43
  -2.024   6.570  -2.266   7.239      -44.73       81.79       35.66       99.81
  -2.020   6.562  -2.270   7.232      -44.86       82.18       35.67      100.19
  -2.015   6.554  -2.273   7.224      -44.99       82.57       35.68      100.57
  -2.011   6.546  -2.277   7.216      -45.12       82.96       35.69      100.96
  -2.006   6.538  -2.281   7.209      -45.25       83.36       35.69      101.34
  -2.002   6.529  -2.284   7.201      -45.38       83.76       35.70      101.73
  -1.998   6.521  -2.288   7.194      -45.51       84.16       35.71      102.12
  -1.993   6.513  -2.291   7.186      -45.65       84.56       35.71      102.51
  -1.989   6.505  -2.295   7.178      -45.78       84.96       35.72      102.91
  -1.984   6.496  -2.298   7.171      -45.91       85.36       35.72      103.30
  -1.980   6.488  -2.301   7.163      -46.04       85.77       35.72      103.70
  -1.975   6.480  -2.305   7.156      -46.18       86.18       35.73      104.09
  -1.971   6.472  -2.308   7.148      -46.31       86.59       35.73      104.49
  -1.966   6.463  -2.312   7.140      -46.45       87.00       35.73      104.90
  -1.962   6.455  -2.315   7.133      -46.58       87.41       35.73      105.30
  -1.958   6.447  -2.319   7.125      -46.72       87.83       35.74      105.70
  -1.953   6.438  -2.322   7.118      -46.85       88.24       35.74      106.11
  -1.949   6.430  -2.325   7.110      -46.99       88.66       35.74      106.52
  -1.944   6.422  -2.329   7.102      -47.12       89.08       35.74      106.93
  -1.940   6.413  -2.332   7.095      -47.26       89.51       35.73      107.34
  -1.936   6.405  -2.335   7.087      -47.39       89.93       35.73      107.75
  -1.931   6.397  -2.339   7.079      -47.53       90.36       35.73      108.17
  -1.927   6.388  -2.342   7.072      -47.67       90.78       35.73      108.58
  -1.922   6.380  -2.345   7.064      -47.81       91.21       35.73      109.00
  -1.918   6.372  -2.348   7.056      -47.94       91.65       35.72      109.42
  -1.914   6.363  -2.352   7.049      -48.08       92.08       35.72      109.85
  -1.909   6.355  -2.355   7.041      -48.22       92.51       35.71      110.27
  -1.905   6.346  -2.358   7.033      -48.36       92.95       35.71      110.70
  -1.901   6.338  -2.361   7.026      -48.50       93.39       35.70      111.12
  -1.896   6.330  -2.365   7.018      -48.64       93.83       35.69      111.55
  -1.892   6.321  -2.368   7.010      -48.78       94.28       35.69      111.99
  -1.887   6.313  -2.371   7.003      -48.92       94.72       35.68      112.42
  -1.883   6.304  -2.374   6.995      -49.06       95.17       35.67      112.85
  -1.879   6.296  -2.377   6.987      -49.20       95.62       35.66      113.29
  -1.874   6.288  -2.380   6.979      -49.34       96.07       35.65      113.73
  -1.870   6.279  -2.384   6.972      -49.49       96.52       35.64      114.17
  -1.866   6.271  -2.387   6.964      -49.63       96.98       35.63      114.62
  -1.861   6.262  -2.390   6.956      -49.77       97.43       35.62      115.06
  -1.857   6.254  -2.393   6.949      -49.92       97.89       35.60      115.51
  -1.853   6.245  -2.396   6.941      -50.06       98.35       35.59      115.96
  -1.848   6.237  -2.399   6.933      -50.20       98.82       35.58      116.41
  -1.844   6.228  -2.402   6.925      -50.35       99.28       35.56      116.86
  -1.840   6.220  -2.405   6.918      -50.49       99.75       35.55      117.32
  -1.836   6.211  -2.408   6.910      -50.64      100.22       35.53      117.78
  -1.831   6.203  -2.411   6.902      -50.78      100.69       35.51      118.23
  -1.827   6.194  -2.414   6.894      -50.93      101.17       35.50      118.70
  -1.823   6.186  -2.417   6.887      -51.08      101.64       35.48      119.16
  -1.818   6.177  -2.420   6.879      -51.22      102.12       35.46      119.63
  -1.814   6.169  -2.423   6.871      -51.37      102.60       35.44      120.09
  -1.810   6.160  -2.426   6.863      -51.52      103.09       35.42      120.56
  -1.806   6.151  -2.429   6.856      -51.67      103.57       35.40      121.04
  -1.801   6.143  -2.432   6.848      -51.82      104.06       35.38      121.51
  -1.797   6.134  -2.435   6.840      -51.97      104.55       35.35      121.99
  -1.793   6.126  -2.438   6.832      -52.12      105.04       35.33      122.47
  -1.789   6.117  -2.440   6.825      -52.27      105.53       35.31      122.95
  -1.784   6.109  -2.443   6.817      -52.42      106.03       35.28      123.43
  -1.780   6.100  -2.446   6.809      -52.57      106.53       35.26      123.92
  -1.776   6.091  -2.449   6.801      -52.72      107.03       35.23      124.40
  -1.772   6.083  -2.452   6.793      -52.87      107.53       35.20      124.89
  -1.767   6.074  -2.455   6.786      -53.03      108.04       35.18      125.39
  -1.763   6.066  -2.457   6.778      -53.18      108.55       35.15      125.88
  -1.759   6.057  -2.460   6.770      -53.33      109.06       35.12      126.38
  -1.755   6.048  -2.463   6.762      -53.49      109.57       35.09      126.88
  -1.750   6.040  -2.466   6.754      -53.64      110.08       35.06      127.38
  -1.746   6.031  -2.469   6.747      -53.80      110.60       35.02      127.88
  -1.742   6.022  -2.471   6.739      -53.95      111.12       34.99      128.39
  -1.738   6.014  -2.474   6.731      -54.11      111.64       34.96      128.90
  -1.734   6.005  -2.477   6.723      -54.27      112.17       34.92      129.41
  -1.729   5.996  -2.479   6.715      -54.42      112.70       34.89      129.92
  -1.725   5.988  -2.482   6.707      -54.58      113.23       34.85      130.44
  -1.721   5.979  -2.485   6.700      -54.74      113.76       34.82      130.96
  -1.717   5.970  -2.487   6.692      -54.90      114.29       34.78      131.48
  -1.713   5.962  -2.490   6.684      -55.06      114.83       34.74      132.00
  -1.709   5.953  -2.493   6.676      -55.22      115.37       34.70      132.53
  -1.704   5.944  -2.495   6.668      -55.38      115.91       34.66      133.06
  -1.700   5.936  -2.498   6.660      -55.54      116.46       34.62      133.59
  -1.696   5.927  -2.500   6.652      -55.70      117.01       34.58      134.12
  -1.692   5.918  -2.503   6.645      -55.86      117.56       34.54      134.66
  -1.688   5.909  -2.506   6.637      -56.02      118.11       34.49      135.20
  -1.684   5.901  -2.508   6.629      -56.19      118.67       34.45      135.74
  -1.679   5.892  -2.511   6.621      -56.35      119.23       34.40      136.29
  -1.675   5.883  -2.513   6.613      -56.51      119.79       34.35      136.83
  -1.671   5.874  -2.516   6.605      -56.68      120.35       34.31      137.38
  -1.667   5.866  -2.518   6.597      -56.84      120.92       34.26      137.93
  -1.663   5.857  -2.521   6.589      -57.01      121.49       34.21      138.49
  -1.659   5.848  -2.523   6.582      -57.18      122.06       34.16      139.05
  -1.655   5.839  -2.526   6.574      -57.34      122.63       34.11      139.61
  -1.651   5.830  -2.528   6.566      -57.51      123.21       34.05      140.17
  -1.647   5.822  -2.530   6.558      -57.68      123.79       34.00      140.74
  -1.642   5.813  -2.533   6.550      -57.85      124.38       33.95      141.31
  -1.638   5.804  -2.535   6.542      -58.02      124.96       33.89      141.88
  -1.634   5.795  -2.538   6.534      -58.19      125.55       33.84      142.46
  -1.630   5.786  -2.540   6.526      -58.36      126.14       33.78      143.03
  -1.626   5.778  -2.542   6.518      -58.53      126.74       33.72      143.62
  -1.622   5.769  -2.545   6.510      -58.70      127.34       33.66      144.20
  -1.618   5.760  -2.547   6.502      -58.87      127.94       33.60      144.79
  -1.614   5.751  -2.549   6.495      -59.05      128.54       33.54      145.38
  -1.610   5.742  -2.552   6.487      -59.22      129.15       33.48      145.97
  -1.606   5.733  -2.554   6.479      -59.40      129.76       33.41      146.57
  -1.602   5.725  -2.556   6.471      -59.57      130.37       33.35      147.16
  -1.598   5.716  -2.558   6.463      -59.75      130.99       33.28      147.77
  -1.594   5.707  -2.561   6.455      -59.92      131.61       33.22      148.37
  -1.590   5.698  -2.563   6.447      -60.10      132.23       33.15      148.98
  -1.586   5.689  -2.565   6.439      -60.28      132.85       33.08      149.59
  -1.582   5.680  -2.567   6.431      -60.46      133.48       33.01      150.21
  -1.578   5.671  -2.570   6.423      -60.63      134.11       32.94      150.82
  -1.574   5.662  -2.572   6.415      -60.81      134.75       32.87      151.45
  -1.570   5.654  -2.574   6.407      -60.99      135.39       32.79      152.07
  -1.566   5.645  -2.576   6.399      -61.17      136.03       32.72      152.70
  -1.562   5.636  -2.578   6.391      -61.36      136.67       32.64      153.33
  -1.558   5.627  -2.580   6.383      -61.54      137.32       32.56      153.96
  -1.554   5.618  -2.582   6.375      -61.72      137.97       32.49      154.60
  -1.550   5.609  -2.584   6.367      -61.91      138.63       32.41      155.24
  -1.546   5.600  -2.587   6.359      -62.09      139.28       32.33      155.89
  -1.542   5.591  -2.589   6.351      -62.28      139.94       32.24      156.53
  -1.538   5.582  -2.591   6.343      -62.46      140.61       32.16      157.18
  -1.534   5.573  -2.593   6.335      -62.65      141.28       32.08      157.84
  -1.530   5.564  -2.595   6.327      -62.84      141.95       31.99      158.50
  -1.526   5.555  -2.597   6.319      -63.02      142.62       31.91      159.16
  -1.522   5.546  -2.599   6.311      -63.21      143.30       31.82      159.82
  -1.518   5.537  -2.601   6.303      -63.40      143.98       31.73      160.49
  -1.514   5.528  -2.603   6.295      -63.59      144.67       31.64      161.17
  -1.510   5.519  -2.605   6.287      -63.78      145.36       31.55      161.84
  -1.506   5.510  -2.607   6.279      -63.98      146.05       31.45      162.52
  -1.502   5.501  -2.609   6.271      -64.17      146.75       31.36      163.20
  -1.498   5.492  -2.610   6.263      -64.36      147.45       31.26      163.89
  -1.494   5.483  -2.612   6.255      -64.56      148.15       31.17      164.58
  -1.490   5.474  -2.614   6.247      -64.75      148.86       31.07      165.28
  -1.486   5.465  -2.616   6.239      -64.95      149.57       30.97      165.98
  -1.482   5.456  -2.618   6.231      -65.14      150.28       30.87      166.68
  -1.478   5.447  -2.620   6.223      -65.34      151.00       30.76      167.38
  -1.475   5.438  -2.622   6.215      -65.54      151.72       30.66      168.09
  -1.471   5.429  -2.623   6.207      -65.74      152.45       30.55      168.81
  -1.467   5.420  -2.625   6.199      -65.94      153.18       30.45      169.53
  -1.463   5.411  -2.627   6.191      -66.14      153.91       30.34      170.25
  -1.459   5.402  -2.629   6.182      -66.34      154.65       30.23      170.97
  -1.455   5.393  -2.631   6.174      -66.54      155.39       30.12      171.70
  -1.451   5.384  -2.632   6.166      -66.75      156.14       30.01      172.44
  -1.447   5.375  -2.634   6.158      -66.95      156.89       29.89      173.18
  -1.444   5.366  -2.636   6.150      -67.15      157.64       29.78      173.92
  -1.440   5.357  -2.637   6.142      -67.36      158.40       29.66      174.67
  -1.436   5.348  -2.639   6.134      -67.57      159.16       29.54      175.42
  -1.432   5.339  -2.641   6.126      -67.78      159.93       29.42      176.17
  -1.428   5.330  -2.643   6.118      -67.98      160.70       29.30      176.93
  -1.424   5.321  -2.644   6.110      -68.19      161.47       29.18      177.69
  -1.420   5.312  -2.646   6.102      -68.40      162.25       29.05      178.46
  -1.417   5.302  -2.647   6.094      -68.61      163.04       28.93      179.23
  -1.413   5.293  -2.649   6.085      -68.83      163.82       28.80      180.01
  -1.409   5.284  -2.651   6.077      -69.04      164.61       28.67      180.79
  -1.405   5.275  -2.652   6.069      -69.25      165.41       28.54      181.58
  -1.401   5.266  -2.654   6.061      -69.47      166.21       28.40      182.37
  -1.398   5.257  -2.655   6.053      -69.68      167.01       28.27      183.16
  -1.394   5.248  -2.657   6.045      -69.90      167.82       28.13      183.96
  -1.390   5.239  -2.658   6.037      -70.12      168.64       28.00      184.77
  -1.386   5.230  -2.660   6.029      -70.34      169.45       27.86      185.58
  -1.382   5.220  -2.661   6.020      -70.56      170.28       27.71      186.39
  -1.379   5.211  -2.663   6.012      -70.78      171.10       27.57      187.21
  -1.375   5.202  -2.664   6.004      -71.00      171.94       27.43      188.03
  -1.371   5.193  -2.666   5.996      -71.22      172.77       27.28      188.86
  -1.367   5.184  -2.667   5.988      -71.45      173.61       27.13      189.69
  -1.364   5.175  -2.669   5.980      -71.67      174.46       26.98      190.53
  -1.360   5.165  -2.670   5.972      -71.90      175.31       26.83      191.37
  -1.356   5.156  -2.671   5.963      -72.12      176.16       26.68      192.22
  -1.352   5.147  -2.673   5.955      -72.35      177.02       26.52      193.07
  -1.348   5.138  -2.674   5.947      -72.58      177.89       26.36      193.93
  -1.345   5.129  -2.676   5.939      -72.81      178.76       26.20      194.79
  -1.341   5.120  -2.677   5.931      -73.04      179.63       26.04      195.66
  -1.337   5.110  -2.678   5.923      -73.27      180.51       25.88      196.53
  -1.334   5.101  -2.680   5.914      -73.51      181.40       25.71      197.41
  -1.330   5.092  -2.681   5.906      -73.74      182.29       25.55      198.29
  -1.326   5.083  -2.682   5.898      -73.98      183.18       25.38      199.18
  -1.322   5.074  -2.683   5.890      -74.21      184.08       25.21      200.07
  -1.319   5.064  -2.685   5.882      -74.45      184.99       25.03      200.97
  -1.315   5.055  -2.686   5.874      -74.69      185.90       24.86      201.88
  -1.311   5.046  -2.687   5.865      -74.93      186.81       24.68      202.79
  -1.308   5.037  -2.688   5.857      -75.17      187.73       24.50      203.70
  -1.304   5.028  -2.689   5.849      -75.41      188.66       24.32      204.62
  -1.300   5.018  -2.691   5.841      -75.66      189.59       24.14      205.55
  -1.297   5.009  -2.692   5.833      -75.90      190.53       23.95      206.48
  -1.293   5.000  -2.693   5.824      -76.15      191.47       23.76      207.42
  -1.289   4.991  -2.694   5.816      -76.39      192.42       23.57      208.37
  -1.286   4.981  -2.695   5.808      -76.64      193.37       23.38      209.32
  -1.282   4.972  -2.696   5.800      -76.89      194.33       23.18      210.27
  -1.278   4.963  -2.697   5.791      -77.14      195.30       22.99      211.23
  -1.275   4.954  -2.699   5.783      -77.39      196.27       22.79      212.20
  -1.271   4.944  -2.700   5.775      -77.65      197.24       22.59      213.18
  -1.267   4.935  -2.701   5.767      -77.90      198.22       22.38      214.15
  -1.264   4.926  -2.702   5.759      -78.15      199.21       22.18      215.14
  -1.260   4.917  -2.703   5.750      -78.41      200.21       21.97      216.13
  -1.256   4.907  -2.704   5.742      -78.67      201.21       21.76      217.13
  -1.253   4.898  -2.705   5.734      -78.93      202.21       21.54      218.14
  -1.249   4.889  -2.706   5.726      -79.19      203.22       21.33      219.15
  -1.246   4.880  -2.707   5.717      -79.45      204.24       21.11      220.16
  -1.242   4.870  -2.708   5.709      -79.71      205.26       20.89      221.19
  -1.238   4.861  -2.709   5.701      -79.98      206.29       20.67      222.22
  -1.235   4.852  -2.709   5.693      -80.24      207.33       20.44      223.25
  -1.231   4.843  -2.710   5.684      -80.51      208.37       20.21      224.30
  -1.228   4.833  -2.711   5.676      -80.78      209.42       19.98      225.35
  -1.224   4.824  -2.712   5.668      -81.05      210.47       19.75      226.40
  -1.220   4.815  -2.713   5.660      -81.32      211.53       19.51      227.46
  -1.217   4.805  -2.714   5.651      -81.59      212.60       19.27      228.53
  -1.213   4.796  -2.715   5.643      -81.87      213.67       19.03      229.61
  -1.210   4.787  -2.716   5.635      -82.14      214.76       18.78      230.70
  -1.206   4.777  -2.716   5.626      -82.42      215.84       18.54      231.79
  -1.203   4.768  -2.717   5.618      -82.70      216.94       18.29      232.88
  -1.199   4.759  -2.718   5.610      -82.98      218.04       18.03      233.99
  -1.196   4.749  -2.719   5.602      -83.26      219.14       17.78      235.10
  -1.192   4.740  -2.719   5.593      -83.54      220.26       17.52      236.22
  -1.188   4.731  -2.720   5.585      -83.83      221.38       17.26      237.35
  -1.185   4.721  -2.721   5.577      -84.11      222.51       16.99      238.48
  -1.181   4.712  -2.722   5.568      -84.40      223.64       16.72      239.62
  -1.178   4.703  -2.722   5.560      -84.69      224.78       16.45      240.77
  -1.174   4.693  -2.723   5.552      -84.98      225.93       16.18      241.93
  -1.171   4.684  -2.724   5.543      -85.27      227.09       15.90      243.09
  -1.167   4.675  -2.724   5.535      -85.56      228.25       15.62      244.26
  -1.164   4.665  -2.725   5.527      -85.86      229.42       15.34      245.44
  -1.160   4.656  -2.725   5.519      -86.15      230.60       15.05      246.63
  -1.157   4.647  -2.726   5.510      -86.45      231.78       14.76      247.82
  -1.153   4.637  -2.727   5.502      -86.75      232.98       14.47      249.03
  -1.150   4.628  -2.727   5.494      -87.05      234.18       14.17      250.24
  -1.146   4.619  -2.728   5.485      -87.36      235.39       13.87      251.45
  -1.143   4.609  -2.728   5.477      -87.66      236.60       13.57      252.68
  -1.139   4.600  -2.729   5.469      -87.97      237.82       13.26      253.92
  -1.136   4.591  -2.729   5.460      -88.27      239.05       12.96      255.16
  -1.133   4.581  -2.730   5.452      -88.58      240.29       12.64      256.41
  -1.129   4.572  -2.730   5.443      -88.89      241.54       12.32      257.67
  -1.126   4.562  -2.731   5.435      -89.21      242.79       12.00      258.94
  -1.122   4.553  -2.731   5.427      -89.52      244.06       11.68      260.22
  -1.119   4.544  -2.732   5.418      -89.84      245.33       11.35      261.51
  -1.115   4.534  -2.732   5.410      -90.16      246.61       11.02      262.80
  -1.112   4.525  -2.733   5.402      -90.48      247.89       10.69      264.10
  -1.108   4.516  -2.733   5.393      -90.80      249.19       10.35      265.42
  -1.105   4.506  -2.733   5.385      -91.12      250.49       10.00      266.74
  -1.102   4.497  -2.734   5.377      -91.45      251.80        9.66      268.07
  -1.098   4.487  -2.734   5.368      -91.77      253.13        9.31      269.41
  -1.095   4.478  -2.734   5.360      -92.10      254.45        8.95      270.76
  -1.091   4.469  -2.735   5.351      -92.43      255.79        8.59      272.12
  -1.088   4.459  -2.735   5.343      -92.76      257.14        8.23      273.48
  -1.085   4.450  -2.735   5.335      -93.10      258.49        7.86      274.86
  -1.081   4.440  -2.736   5.326      -93.43      259.86        7.49      276.25
  -1.078   4.431  -2.736   5.318      -93.77      261.23        7.12      277.64
  -1.075   4.422  -2.736   5.310      -94.11      262.61        6.74      279.05
  -1.071   4.412  -2.736   5.301      -94.45      264.01        6.35      280.47
  -1.068   4.403  -2.737   5.293      -94.80      265.41        5.97      281.89
  -1.064   4.393  -2.737   5.284      -95.14      266.82        5.57      283.33
  -1.061   4.384  -2.737   5.276      -95.49      268.24        5.18      284.77
  -1.058   4.374  -2.737   5.268      -95.84      269.66        4.77      286.23
  -1.054   4.365  -2.737   5.259      -96.19      271.10        4.37      287.70
  -1.051   4.356  -2.737   5.251      -96.55      272.55        3.96      289.17
  -1.048   4.346  -2.738   5.242      -96.90      274.01        3.54      290.66
  -1.044   4.337  -2.738   5.234      -97.26      275.47        3.12      292.16
  -1.041   4.327  -2.738   5.225      -97.62      276.95        2.70      293.66
  -1.038   4.318  -2.738   5.217      -97.98      278.44        2.27      295.18
  -1.034   4.308  -2.738   5.209      -98.35      279.93        1.83      296.71
  -1.031   4.299  -2.738   5.200      -98.71      281.44        1.40      298.25
  -1.028   4.290  -2.738   5.192      -99.08      282.96        0.95      299.81
  -1.024   4.280  -2.738   5.183      -99.45      284.49        0.50      301.37
  -1.021   4.271  -2.738   5.175      -99.82      286.02        0.05      302.94
  -1.018   4.261  -2.738   5.166     -100.20      287.57       -0.41      304.53
  -1.015   4.252  -2.738   5.158     -100.58      289.13       -0.88      306.12
  -1.011   4.242  -2.738   5.150     -100.96      290.70       -1.35      307.73
  -1.008   4.233  -2.738   5.141     -101.34      292.28       -1.82      309.35
  -1.005   4.223  -2.738   5.133     -101.72      293.87       -2.30      310.99
  -1.002   4.214  -2.738   5.124     -102.11      295.47       -2.79      312.63
  -0.998   4.205  -2.738   5.116     -102.49      297.08       -3.28      314.28
  -0.995   4.195  -2.738   5.107     -102.89      298.71       -3.78      315.95
  -0.992   4.186  -2.738   5.099     -103.28      300.34       -4.28      317.63
  -0.988   4.176  -2.737   5.090     -103.67      301.99       -4.79      319.32
  -0.985   4.167  -2.737   5.082     -104.07      303.65       -5.31      321.03
  -0.982   4.157  -2.737   5.073     -104.47      305.32       -5.83      322.75
  -0.979   4.148  -2.737   5.065     -104.87      307.00       -6.35      324.48
  -0.976   4.138  -2.737   5.056     -105.28      308.69       -6.89      326.22
  -0.972   4.129  -2.736   5.048     -105.69      310.39       -7.42      327.98
  -0.969   4.119  -2.736   5.039     -106.10      312.11       -7.97      329.74
  -0.966   4.110  -2.736   5.031     -106.51      313.84       -8.52      331.53
  -0.963   4.101  -2.736   5.022     -106.92      315.58       -9.08      333.32
  -0.959   4.091  -2.735   5.014     -107.34      317.33       -9.64      335.13
  -0.956   4.082  -2.735   5.005     -107.76      319.09      -10.21      336.95
  -0.953   4.072  -2.735   4.997     -108.18      320.87      -10.79      338.79
  -0.950   4.063  -2.734   4.988     -108.61      322.66      -11.37      340.64
  -0.947   4.053  -2.734   4.980     -109.03      324.46      -11.96      342.50
  -0.943   4.044  -2.734   4.971     -109.47      326.28      -12.56      344.38
  -0.940   4.034  -2.733   4.963     -109.90      328.10      -13.16      346.27
  -0.937   4.025  -2.733   4.954     -110.33      329.95      -13.77      348.18
  -0.934   4.015  -2.733   4.946     -110.77      331.80      -14.39      350.10
  -0.931   4.006  -2.732   4.937     -111.21      333.67      -15.01      352.03
  -0.928   3.996  -2.732   4.929     -111.66      335.55      -15.64      353.98
  -0.925   3.987  -2.731   4.920     -112.10      337.44      -16.28      355.95
  -0.921   3.977  -2.731   4.912     -112.55      339.35      -16.93      357.93
  -0.918   3.968  -2.730   4.903     -113.00      341.27      -17.58      359.92
  -0.915   3.958  -2.730   4.895     -113.46      343.20      -18.25      361.93
  -0.912   3.949  -2.729   4.886     -113.92      345.15      -18.91      363.96
  -0.909   3.939  -2.729   4.878     -114.38      347.12      -19.59      366.00
  -0.906   3.930  -2.728   4.869     -114.84      349.09      -20.28      368.06
  -0.903   3.920  -2.728   4.861     -115.31      351.09      -20.97      370.13
  -0.899   3.911  -2.727   4.852     -115.78      353.09      -21.67      372.22
  -0.896   3.901  -2.727   4.843     -116.25      355.11      -22.38      374.32
  -0.893   3.892  -2.726   4.835     -116.72      357.15      -23.09      376.45
  -0.890   3.882  -2.725   4.826     -117.20      359.20      -23.82      378.59
  -0.887   3.873  -2.725   4.818     -117.68      361.26      -24.55      380.74
  -0.884   3.864  -2.724   4.809     -118.17      363.34      -25.29      382.91
  -0.881   3.854  -2.723   4.801     -118.65      365.44      -26.04      385.10
  -0.878   3.845  -2.723   4.792     -119.14      367.55      -26.80      387.31
  -0.875   3.835  -2.722   4.784     -119.64      369.68      -27.57      389.53
  -0.872   3.826  -2.721   4.775     -120.13      371.82      -28.35      391.77
  -0.869   3.816  -2.721   4.766     -120.63      373.98      -29.13      394.03
  -0.866   3.807  -2.720   4.758     -121.14      376.15      -29.93      396.31
  -0.863   3.797  -2.719   4.749     -121.64      378.34      -30.73      398.60
  -0.859   3.788  -2.718   4.741     -122.15      380.55      -31.55      400.92
  -0.856   3.778  -2.717   4.732     -122.67      382.77      -32.37      403.25
  -0.853   3.769  -2.717   4.723     -123.18      385.01      -33.20      405.60
  -0.850   3.759  -2.716   4.715     -123.70      387.27      -34.05      407.97
  -0.847   3.750  -2.715   4.706     -124.22      389.54      -34.90      410.36
  -0.844   3.740  -2.714   4.698     -124.75      391.83      -35.76      412.76
  -0.841   3.731  -2.713   4.689     -125.28      394.14      -36.63      415.19
  -0.838   3.721  -2.712   4.680     -125.81      396.47      -37.51      417.64
  -0.835   3.712  -2.711   4.672     -126.35      398.81      -38.41      420.10
  -0.832   3.702  -2.711   4.663     -126.89      401.17      -39.31      422.59
  -0.829   3.693  -2.710   4.655     -127.43      403.55      -40.22      425.10
  -0.826   3.683  -2.709   4.646     -127.98      405.94      -41.15      427.62
  -0.823   3.674  -2.708   4.637     -128.53      408.36      -42.08      430.17
  -0.820   3.664  -2.707   4.629     -129.09      410.79      -43.03      432.74
  -0.817   3.655  -2.706   4.620     -129.65      413.24      -43.99      435.33
  -0.814   3.645  -2.705   4.611     -130.21      415.71      -44.95      437.94
  -0.811   3.636  -2.704   4.603     -130.77      418.20      -45.93      440.57
  -0.808   3.626  -2.703   4.594     -131.34      420.71      -46.93      443.23
  -0.805   3.617  -2.701   4.586     -131.92      423.24      -47.93      445.90
  -0.802   3.607  -2.700   4.577     -132.49      425.79      -48.94      448.60
  -0.799   3.598  -2.699   4.568     -133.07      428.35      -49.97      451.32
  -0.797   3.588  -2.698   4.560     -133.66      430.94      -51.01      454.06
  -0.794   3.579  -2.697   4.551     -134.25      433.55      -52.06      456.83
  -0.791   3.569  -2.696   4.542     -134.84      436.17      -53.12      459.62
  -0.788   3.560  -2.695   4.534     -135.44      438.82      -54.20      462.43
  -0.785   3.550  -2.694   4.525     -136.04      441.49      -55.29      465.27
  -0.782   3.541  -2.692   4.516     -136.64      444.18      -56.39      468.13
  -0.779   3.531  -2.691   4.508     -137.25      446.89      -57.50      471.01
  -0.776   3.522  -2.690   4.499     -137.86      449.62      -58.63      473.92
  -0.773   3.512  -2.689   4.490     -138.48      452.37      -59.77      476.85
  -0.770   3.503  -2.687   4.482     -139.10      455.14      -60.93      479.81
  -0.767   3.493  -2.686   4.473     -139.73      457.94      -62.10      482.79
  -0.764   3.484  -2.685   4.464     -140.36      460.76      -63.28      485.80
  -0.762   3.474  -2.684   4.456     -140.99      463.60      -64.48      488.83
  -0.759   3.465  -2.682   4.447     -141.63      466.46      -65.69      491.89
  -0.756   3.455  -2.681   4.438     -142.27      469.35      -66.91      494.98
  -0.753   3.446  -2.680   4.430     -142.92      472.25      -68.15      498.09
  -0.750   3.436  -2.678   4.421     -143.57      475.19      -69.40      501.23
  -0.747   3.427  -2.677   4.412     -144.23      478.14      -70.67      504.40
  -0.744   3.418  -2.675   4.404     -144.89      481.12      -71.96      507.59
  -0.742   3.408  -2.674   4.395     -145.55      484.12      -73.26      510.81
  -0.739   3.399  -2.672   4.386     -146.22      487.15      -74.57      514.06
  -0.736   3.389  -2.671   4.377     -146.90      490.20      -75.90      517.34
  -0.733   3.380  -2.670   4.369     -147.57      493.28      -77.25      520.64
  -0.730   3.370  -2.668   4.360     -148.26      496.38      -78.61      523.98
  -0.727   3.361  -2.667   4.351     -148.95      499.50      -79.99      527.34
  -0.725   3.351  -2.665   4.343     -149.64      502.65      -81.39      530.73
  -0.722   3.342  -2.663   4.334     -150.34      505.83      -82.80      534.16
  -0.719   3.332  -2.662   4.325     -151.04      509.03      -84.23      537.61
  -0.716   3.323  -2.660   4.316     -151.75      512.26      -85.68      541.09
  -0.713   3.313  -2.659   4.308     -152.46      515.52      -87.14      544.61
  -0.710   3.304  -2.657   4.299     -153.18      518.80      -88.62      548.15
  -0.708   3.294  -2.656   4.290     -153.90      522.11      -90.12      551.73
  -0.705   3.285  -2.654   4.281     -154.63      525.44      -91.64      555.34
  -0.702   3.275  -2.652   4.273     -155.36      528.80      -93.18      558.98
  -0.699   3.266  -2.651   4.264     -156.10      532.20      -94.73      562.65
  -0.697   3.257  -2.649   4.255     -156.85      535.61      -96.31      566.36
  -0.694   3.247  -2.647   4.246     -157.60      539.06      -97.90      570.09
  -0.691   3.238  -2.645   4.238     -158.35      542.54      -99.51      573.87
  -0.688   3.228  -2.644   4.229     -159.11      546.04     -101.14      577.67
  -0.686   3.219  -2.642   4.220     -159.87      549.58     -102.79      581.51
  -0.683   3.209  -2.640   4.211     -160.64      553.14     -104.47      585.39
  -0.680   3.200  -2.638   4.203     -161.42      556.73     -106.16      589.30
  -0.677   3.190  -2.637   4.194     -162.20      560.35     -107.87      593.25
  -0.675   3.181  -2.635   4.185     -162.99      564.01     -109.60      597.23
  -0.672   3.171  -2.633   4.176     -163.78      567.69     -111.36      601.25
  -0.669   3.162  -2.631   4.168     -164.58      571.41     -113.13      605.30
  -0.666   3.153  -2.629   4.159     -165.39      575.15     -114.93      609.40
  -0.664   3.143  -2.627   4.150     -166.20      578.93     -116.75      613.53
  -0.661   3.134  -2.625   4.141     -167.01      582.74     -118.59      617.70
  -0.658   3.124  -2.623   4.132     -167.84      586.59     -120.46      621.90
  -0.656   3.115  -2.621   4.124     -168.66      590.46     -122.34      626.15
  -0.653   3.105  -2.619   4.115     -169.50      594.37     -124.25      630.43
  -0.650   3.096  -2.617   4.106     -170.34      598.31     -126.19      634.76
  -0.648   3.087  -2.615   4.097     -171.18      602.29     -128.15      639.12
  -0.645   3.077  -2.613   4.088     -172.04      606.30     -130.13      643.53
  -0.642   3.068  -2.611   4.080     -172.90      610.34     -132.13      647.97
  -0.640   3.058  -2.609   4.071     -173.76      614.42     -134.17      652.46
  -0.637   3.049  -2.607   4.062     -174.63      618.54     -136.22      656.99
  -0.634   3.040  -2.605   4.053     -175.51      622.69     -138.30      661.57
  -0.632   3.030  -2.603   4.044     -176.39      626.87     -140.41      666.18
  -0.629   3.021  -2.601   4.036     -177.29      631.09     -142.54      670.84
  -0.626   3.011  -2.599   4.027     -178.18      635.35     -144.70      675.55
  -0.624   3.002  -2.597   4.018     -179.09      639.65     -146.89      680.29
  -0.621   2.992  -2.595   4.009     -180.00      643.98     -149.11      685.09
  -0.618   2.983  -2.592   4.000     -180.92      648.35     -151.35      689.93
  -0.616   2.974  -2.590   3.991     -181.84      652.76     -153.62      694.81
  -0.613   2.964  -2.588   3.983     -182.77      657.21     -155.92      699.75
  -0.611   2.955  -2.586   3.974     -183.71      661.70     -158.24      704.72
  -0.608   2.946  -2.583   3.965     -184.66      666.23     -160.60      709.75
  -0.605   2.936  -2.581   3.956     -185.61      670.79     -162.98      714.83
  -0.603   2.927  -2.579   3.947     -186.57      675.40     -165.40      719.95
  -0.600   2.917  -2.577   3.938     -187.54      680.05     -167.84      725.13
  -0.598   2.908  -2.574   3.929     -188.51      684.74     -170.32      730.35
  -0.595   2.899  -2.572   3.921     -189.49      689.47     -172.83      735.63
  -0.592   2.889  -2.570   3.912     -190.48      694.25     -175.37      740.96
  -0.590   2.880  -2.567   3.903     -191.48      699.06     -177.94      746.34
  -0.587   2.871  -2.565   3.894     -192.48      703.92     -180.54      751.77
  -0.585   2.861  -2.562   3.885     -193.49      708.83     -183.18      757.25
  -0.582   2.852  -2.560   3.876     -194.51      713.78     -185.85      762.79
  -0.580   2.842  -2.558   3.867     -195.54      718.77     -188.55      768.39
  -0.577   2.833  -2.555   3.858     -196.58      723.81     -191.29      774.04
  -0.575   2.824  -2.553   3.850     -197.62      728.89     -194.06      779.74
  -0.572   2.814  -2.550   3.841     -198.67      734.02     -196.87      785.50
  -0.569   2.805  -2.548   3.832     -199.73      739.20     -199.72      791.32
  -0.567   2.796  -2.545   3.823     -200.80      744.42     -202.60      797.20
  -0.564   2.786  -2.543   3.814     -201.87      749.69     -205.51      803.14
  -0.562   2.777  -2.540   3.805     -202.96      755.01     -208.47      809.13
  -0.559   2.768  -2.537   3.796     -204.05      760.38     -211.46      815.19
  -0.557   2.758  -2.535   3.787     -205.15      765.80     -214.49      821.30
  -0.554   2.749  -2.532   3.778     -206.26      771.27     -217.56      827.48
  -0.552   2.740  -2.530   3.770     -207.38      776.79     -220.67      833.72
  -0.549   2.730  -2.527   3.761     -208.50      782.36     -223.82      840.03
  -0.547   2.721  -2.524   3.752     -209.64      787.98     -227.01      846.40
  -0.545   2.712  -2.521   3.743     -210.78      793.65     -230.24      852.83
  -0.542   2.702  -2.519   3.734     -211.94      799.38     -233.51      859.33
  -0.540   2.693  -2.516   3.725     -213.10      805.16     -236.83      865.90
  -0.537   2.684  -2.513   3.716     -214.27      810.99     -240.18      872.53
  -0.535   2.675  -2.511   3.707     -215.45      816.88     -243.58      879.23
  -0.532   2.665  -2.508   3.698     -216.64      822.83     -247.03      886.00
  -0.530   2.656  -2.505   3.689     -217.84      828.83     -250.52      892.84
  -0.527   2.647  -2.502   3.680     -219.05      834.88     -254.06      899.75
  -0.525   2.637  -2.499   3.671     -220.27      841.00     -257.64      906.74
  -0.522   2.628  -2.496   3.662     -221.50      847.17     -261.27      913.79
  -0.520   2.619  -2.494   3.653     -222.73      853.40     -264.94      920.92
  -0.518   2.610  -2.491   3.644     -223.98      859.69     -268.67      928.13
  -0.515   2.600  -2.488   3.635     -225.24      866.04     -272.44      935.41
  -0.513   2.591  -2.485   3.627     -226.51      872.45     -276.26      942.76
  -0.510   2.582  -2.482   3.618     -227.78      878.93     -280.14      950.20
  -0.508   2.573  -2.479   3.609     -229.07      885.46     -284.06      957.71
  -0.506   2.563  -2.476   3.600     -230.37      892.06     -288.04      965.30
  -0.503   2.554  -2.473   3.591     -231.68      898.72     -292.06      972.98
  -0.501   2.545  -2.470   3.582     -233.00      905.45     -296.15      980.73
  -0.499   2.536  -2.467   3.573     -234.33      912.24     -300.28      988.57
  -0.496   2.526  -2.464   3.564     -235.67      919.10     -304.47      996.49
  -0.494   2.517  -2.461   3.555     -237.02      926.03     -308.72     1004.49
  -0.491   2.508  -2.458   3.546     -238.38      933.02     -313.02     1012.59
  -0.489   2.499  -2.455   3.537     -239.75      940.08     -317.38     1020.77
  -0.487   2.490  -2.452   3.528     -241.14      947.21     -321.80     1029.03
  -0.484   2.480  -2.448   3.519     -242.53      954.41     -326.28     1037.39
  -0.482   2.471  -2.445   3.510     -243.94      961.68     -330.82     1045.84
  -0.480   2.462  -2.442   3.501     -245.36      969.03     -335.41     1054.38
  -0.477   2.453  -2.439   3.492     -246.79      976.44     -340.08     1063.01
  -0.475   2.444  -2.436   3.483     -248.23      983.93     -344.80     1071.74
  -0.473   2.434  -2.432   3.474     -249.69      991.50     -349.58     1080.57
  -0.470   2.425  -2.429   3.465     -251.15      999.14     -354.44     1089.49
  -0.468   2.416  -2.426   3.456     -252.63     1006.86     -359.35     1098.51
  -0.466   2.407  -2.423   3.447     -254.12     1014.65     -364.34     1107.63
  -0.464   2.398  -2.419   3.438     -255.62     1022.53     -369.39     1116.85
  -0.461   2.389  -2.416   3.429     -257.13     1030.48     -374.51     1126.17
  -0.459   2.380  -2.413   3.420     -258.66     1038.51     -379.70     1135.60
  -0.457   2.370  -2.409   3.411     -260.20     1046.63     -384.96     1145.13
  -0.454   2.361  -2.406   3.402     -261.75     1054.82     -390.29     1154.77
  -0.452   2.352  -2.403   3.393     -263.32     1063.10     -395.69     1164.52
  -0.450   2.343  -2.399   3.384     -264.90     1071.47     -401.17     1174.37
  -0.448   2.334  -2.396   3.374     -266.49     1079.92     -406.73     1184.34
  -0.445   2.325  -2.392   3.365     -268.09     1088.45     -412.36     1194.42
  -0.443   2.316  -2.389   3.356     -269.71     1097.08     -418.06     1204.62
  -0.441   2.307  -2.385   3.347     -271.34     1105.79     -423.85     1214.93
  -0.439   2.297  -2.382   3.338     -272.99     1114.60     -429.72     1225.36
  -0.436   2.288  -2.378   3.329     -274.65     1123.49     -435.67     1235.91
  -0.434   2.279  -2.375   3.320     -276.32     1132.48     -441.70     1246.58
  -0.432   2.270  -2.371   3.311     -278.01     1141.56     -447.81     1257.37
  -0.430   2.261  -2.368   3.302     -279.71     1150.74     -454.01     1268.29
  -0.428   2.252  -2.364   3.293     -281.42     1160.01     -460.30     1279.33
  -0.425   2.243  -2.361   3.284     -283.16     1169.38     -466.67     1290.51
  -0.423   2.234  -2.357   3.275     -284.90     1178.85     -473.13     1301.81
  -0.421   2.225  -2.353   3.266     -286.66     1188.42     -479.68     1313.24
  -0.419   2.216  -2.350   3.257     -288.44     1198.09     -486.33     1324.81
  -0.417   2.207  -2.346   3.248     -290.23     1207.86     -493.07     1336.51
  -0.415   2.198  -2.342   3.239     -292.03     1217.73     -499.90     1348.35
  -0.412   2.189  -2.339   3.229     -293.85     1227.72     -506.83     1360.33
  -0.410   2.180  -2.335   3.220     -295.69     1237.80     -513.86     1372.46
  -0.408   2.171  -2.331   3.211     -297.54     1248.00     -520.99     1384.72
  -0.406   2.162  -2.327   3.202     -299.41     1258.31     -528.21     1397.14
  -0.404   2.153  -2.323   3.193     -301.29     1268.72     -535.55     1409.70
  -0.402   2.144  -2.320   3.184     -303.19     1279.25     -542.98     1422.41
  -0.400   2.135  -2.316   3.175     -305.11     1289.90     -550.52     1435.27
  -0.397   2.126  -2.312   3.166     -307.04     1300.66     -558.17     1448.29
  -0.395   2.117  -2.308   3.157     -308.99     1311.53     -565.93     1461.46
  -0.393   2.108  -2.304   3.147     -310.96     1322.53     -573.80     1474.80
  -0.391   2.099  -2.300   3.138     -312.94     1333.64     -581.79     1488.29
  -0.389   2.090  -2.296   3.129     -314.94     1344.88     -589.89     1501.95
  -0.387   2.081  -2.293   3.120     -316.96     1356.24     -598.10     1515.78
  -0.385   2.072  -2.289   3.111     -319.00     1367.73     -606.44     1529.78
  -0.383   2.063  -2.285   3.102     -321.05     1379.35     -614.89     1543.94
  -0.381   2.054  -2.281   3.093     -323.12     1391.09     -623.47     1558.29
  -0.379   2.045  -2.277   3.084     -325.21     1402.96     -632.18     1572.81
  -0.376   2.036  -2.273   3.074     -327.32     1414.97     -641.01     1587.51
  -0.374   2.027  -2.268   3.065     -329.45     1427.11     -649.97     1602.39
  -0.372   2.018  -2.264   3.056     -331.59     1439.39     -659.06     1617.45
  -0.370   2.009  -2.260   3.047     -333.76     1451.81     -668.28     1632.71
  -0.368   2.001  -2.256   3.038     -335.94     1464.36     -677.64     1648.16
  -0.366   1.992  -2.252   3.029     -338.15     1477.06     -687.14     1663.80
  -0.364   1.983  -2.248   3.020     -340.37     1489.91     -696.78     1679.63
  -0.362   1.974  -2.244   3.010     -342.61     1502.90     -706.56     1695.67
  -0.360   1.965  -2.240   3.001     -344.87     1516.03     -716.49     1711.91
  -0.358   1.956  -2.235   2.992     -347.15     1529.32     -726.56     1728.36
  -0.356   1.947  -2.231   2.983     -349.46     1542.76     -736.78     1745.02
  -0.354   1.939  -2.227   2.974     -351.78     1556.36     -747.16     1761.89
  -0.352   1.930  -2.223   2.965     -354.12     1570.12     -757.69     1778.98
  -0.350   1.921  -2.218   2.955     -356.49     1584.03     -768.38     1796.28
  -0.348   1.912  -2.214   2.946     -358.87     1598.10     -779.23     1813.81
  -0.346   1.903  -2.210   2.937     -361.28     1612.34     -790.24     1831.57
  -0.344   1.895  -2.206   2.928     -363.71     1626.75     -801.42     1849.56
  -0.342   1.886  -2.201   2.919     -366.16     1641.32     -812.77     1867.78
  -0.340   1.877  -2.197   2.909     -368.63     1656.07     -824.29     1886.24
  -0.338   1.868  -2.192   2.900     -371.12     1670.99     -835.99     1904.95
  -0.336   1.859  -2.188   2.891     -373.64     1686.09     -847.86     1923.90
  -0.335   1.851  -2.184   2.882     -376.18     1701.37     -859.92     1943.10
  -0.333   1.842  -2.179   2.873     -378.74     1716.83     -872.15     1962.55
  -0.331   1.833  -2.175   2.863     -381.33     1732.47     -884.58     1982.26
  -0.329   1.824  -2.170   2.854     -383.94     1748.30     -897.20     2002.23
  -0.327   1.816  -2.166   2.845     -386.57     1764.33     -910.01     2022.47
  -0.325   1.807  -2.161   2.836     -389.23     1780.54     -923.02     2042.99
  -0.323   1.798  -2.157   2.827     -391.91     1796.95     -936.23     2063.77
  -0.321   1.790  -2.152   2.817     -394.62     1813.56     -949.65     2084.84
  -0.319   1.781  -2.148   2.808     -397.35     1830.38     -963.27     2106.20
  -0.317   1.772  -2.143   2.799     -400.10     1847.40     -977.11     2127.84
  -0.315   1.763  -2.139   2.790     -402.88     1864.62     -991.16     2149.78
  -0.314   1.755  -2.134   2.780     -405.69     1882.06    -1005.44     2172.01
  -0.312   1.746  -2.129   2.771     -408.52     1899.72    -1019.93     2194.56
  -0.310   1.738  -2.125   2.762     -411.37     1917.59    -1034.66     2217.41
  -0.308   1.729  -2.120   2.753     -414.26     1935.68    -1049.62     2240.58
  -0.306   1.720  -2.115   2.744     -417.17     1954.01    -1064.81     2264.06
  -0.304   1.712  -2.111   2.734     -420.10     1972.55    -1080.25     2287.88
  -0.302   1.703  -2.106   2.725     -423.07     1991.34    -1095.93     2312.02
  -0.301   1.694  -2.101   2.716     -426.06     2010.35    -1111.86     2336.51
  -0.299   1.686  -2.096   2.707     -429.08     2029.61    -1128.04     2361.34
  -0.297   1.677  -2.091   2.697     -432.12     2049.11    -1144.48     2386.51
  -0.295   1.669  -2.087   2.688     -435.20     2068.86    -1161.19     2412.04
  -0.293   1.660  -2.082   2.679     -438.30     2088.87    -1178.17     2437.94
  -0.292   1.651  -2.077   2.670     -441.43     2109.12    -1195.42     2464.20
  -0.290   1.643  -2.072   2.660     -444.59     2129.64    -1212.94     2490.84
  -0.288   1.634  -2.067   2.651     -447.78     2150.42    -1230.76     2517.85
  -0.286   1.626  -2.062   2.642     -451.00     2171.47    -1248.86     2545.26
  -0.285   1.617  -2.057   2.632     -454.25     2192.80    -1267.26     2573.06
  -0.283   1.609  -2.053   2.623     -457.53     2214.40    -1285.96     2601.26
  -0.281   1.600  -2.048   2.614     -460.84     2236.28    -1304.96     2629.88
  -0.279   1.592  -2.043   2.605     -464.18     2258.45    -1324.28     2658.90
  -0.278   1.583  -2.038   2.595     -467.55     2280.91    -1343.91     2688.36
  -0.276   1.575  -2.033   2.586     -470.95     2303.67    -1363.87     2718.24
  -0.274   1.566  -2.028   2.577     -474.39     2326.73    -1384.16     2748.56
  -0.272   1.558  -2.023   2.567     -477.85     2350.09    -1404.79     2779.33
  -0.271   1.549  -2.017   2.558     -481.35     2373.77    -1425.76     2810.56
  -0.269   1.541  -2.012   2.549     -484.88     2397.76    -1447.08     2842.25
  -0.267   1.533  -2.007   2.540     -488.45     2422.07    -1468.76     2874.42
  -0.265   1.524  -2.002   2.530     -492.04     2446.72    -1490.80     2907.06
  -0.264   1.516  -1.997   2.521     -495.68     2471.69    -1513.21     2940.20
  -0.262   1.507  -1.992   2.512     -499.34     2497.01    -1536.00     2973.83
  -0.260   1.499  -1.987   2.502     -503.04     2522.67    -1559.18     3007.98
  -0.259   1.491  -1.981   2.493     -506.77     2548.68    -1582.75     3042.64
  -0.257   1.482  -1.976   2.484     -510.54     2575.05    -1606.72     3077.83
  -0.255   1.474  -1.971   2.474     -514.34     2601.78    -1631.10     3113.56
  -0.254   1.465  -1.966   2.465     -518.18     2628.88    -1655.90     3149.84
  -0.252   1.457  -1.961   2.456     -522.06     2656.36    -1681.12     3186.68
  -0.251   1.449  -1.955   2.446     -525.97     2684.21    -1706.78     3224.09
  -0.249   1.440  -1.950   2.437     -529.91     2712.46    -1732.88     3262.08
  -0.247   1.432  -1.945   2.428     -533.90     2741.11    -1759.43     3300.66
  -0.246   1.424  -1.939   2.418     -537.92     2770.16    -1786.45     3339.84
  -0.244   1.416  -1.934   2.409     -541.98     2799.62    -1813.93     3379.64
  -0.242   1.407  -1.929   2.400     -546.07     2829.50    -1841.90     3420.06
  -0.241   1.399  -1.923   2.390     -550.20     2859.80    -1870.35     3461.13
  -0.239   1.391  -1.918   2.381     -554.38     2890.54    -1899.31     3502.84
  -0.238   1.383  -1.912   2.372     -558.59     2921.72    -1928.78     3545.23
  -0.236   1.374  -1.907   2.362     -562.84     2953.34    -1958.76     3588.28
  -0.235   1.366  -1.901   2.353     -567.13     2985.43    -1989.28     3632.04
  -0.233   1.358  -1.896   2.344     -571.45     3017.98    -2020.35     3676.49
  -0.231   1.350  -1.890   2.334     -575.82     3051.01    -2051.96     3721.67
  -0.230   1.341  -1.885   2.325     -580.23     3084.52    -2084.15     3767.57
  -0.228   1.333  -1.879   2.316     -584.68     3118.53    -2116.91     3814.23
  -0.227   1.325  -1.874   2.306     -589.17     3153.03    -2150.26     3861.65
  -0.225   1.317  -1.868   2.297     -593.70     3188.05    -2184.21     3909.85
  -0.224   1.309  -1.863   2.287     -598.27     3223.59    -2218.78     3958.85
  -0.222   1.301  -1.857   2.278     -602.89     3259.66    -2253.98     4008.65
  -0.221   1.293  -1.851   2.269     -607.54     3296.28    -2289.82     4059.29
  -0.219   1.284  -1.846   2.259     -612.24     3333.44    -2326.31     4110.77
  -0.218   1.276  -1.840   2.250     -616.98     3371.17    -2363.48     4163.11
  -0.216   1.268  -1.834   2.241     -621.77     3409.47    -2401.33     4216.33
  -0.215   1.260  -1.829   2.231     -626.59     3448.35    -2439.88     4270.45
  -0.213   1.252  -1.823   2.222     -631.47     3487.84    -2479.14     4325.49
  -0.212   1.244  -1.817   2.212     -636.38     3527.93    -2519.14     4381.47
  -0.211   1.236  -1.811   2.203     -641.34     3568.64    -2559.88     4438.41
  -0.209   1.228  -1.806   2.194     -646.34     3609.98    -2601.38     4496.32
  -0.208   1.220  -1.800   2.184     -651.39     3651.96    -2643.67     4555.23
  -0.206   1.212  -1.794   2.175     -656.48     3694.61    -2686.75     4615.16
  -0.205   1.204  -1.788   2.165     -661.61     3737.92    -2730.64     4676.13
  -0.203   1.196  -1.782   2.156     -666.79     3781.92    -2775.37     4738.17
  -0.202   1.188  -1.777   2.147     -672.02     3826.62    -2820.95     4801.29
  -0.201   1.180  -1.771   2.137     -677.29     3872.03    -2867.40     4865.53
  -0.199   1.172  -1.765   2.128     -682.60     3918.17    -2914.74     4930.90
  -0.198   1.164  -1.759   2.118     -687.97     3965.06    -2963.00     4997.43
  -0.196   1.156  -1.753   2.109     -693.37     4012.70    -3012.18     5065.15
  -0.195   1.148  -1.747   2.100     -698.83     4061.11    -3062.32     5134.08
  -0.194   1.140  -1.741   2.090     -704.32     4110.31    -3113.43     5204.25
  -0.192   1.132  -1.735   2.081     -709.87     4160.32    -3165.54     5275.68
  -0.191   1.125  -1.729   2.071     -715.46     4211.16    -3218.67     5348.41
  -0.190   1.117  -1.723   2.062     -721.10     4262.83    -3272.84     5422.47
  -0.188   1.109  -1.717   2.052     -726.78     4315.36    -3328.08     5497.88
  -0.187   1.101  -1.711   2.043     -732.51     4368.77    -3384.42     5574.68
  -0.186   1.093  -1.705   2.034     -738.28     4423.08    -3441.87     5652.89
  -0.184   1.085  -1.699   2.024     -744.10     4478.31    -3500.47     5732.56
  -0.183   1.078  -1.693   2.015     -749.96     4534.47    -3560.25     5813.71
  -0.182   1.070  -1.686   2.005     -755.88     4591.58    -3621.22     5896.37
  -0.181   1.062  -1.680   1.996     -761.83     4649.68    -3683.42     5980.59
  -0.179   1.054  -1.674   1.986     -767.83     4708.77    -3746.88     6066.40
  -0.178   1.046  -1.668   1.977     -773.88     4768.88    -3811.63     6153.84
  -0.177   1.039  -1.662   1.968     -779.97     4830.04    -3877.70     6242.94
  -0.176   1.031  -1.655   1.958     -786.10     4892.27    -3945.13     6333.74
  -0.174   1.023  -1.649   1.949     -792.28     4955.59    -4013.93     6426.29
  -0.173   1.016  -1.643   1.939     -798.50     5020.03    -4084.16     6520.63
  -0.172   1.008  -1.637   1.930     -804.76     5085.61    -4155.84     6616.80
  -0.171   1.000  -1.630   1.920     -811.07     5152.36    -4229.01     6714.85
  -0.169   0.993  -1.624   1.911     -817.42     5220.31    -4303.71     6814.81
  -0.168   0.985  -1.618   1.901     -823.81     5289.48    -4379.97     6916.75
  -0.167   0.977  -1.611   1.892     -830.23     5359.90    -4457.84     7020.70
  -0.166   0.970  -1.605   1.883     -836.70     5431.61    -4537.35     7126.71
  -0.165   0.962  -1.599   1.873     -843.21     5504.63    -4618.55     7234.84
  -0.164   0.954  -1.592   1.864     -849.75     5578.99    -4701.47     7345.14
  -0.162   0.947  -1.586   1.854     -856.33     5654.74    -4786.17     7457.67
  -0.161   0.939  -1.579   1.845     -862.95     5731.89    -4872.69     7572.47
  -0.160   0.932  -1.573   1.835     -869.60     5810.48    -4961.07     7689.61
  -0.159   0.924  -1.567   1.826     -876.28     5890.56    -5051.36     7809.15
  -0.158   0.917  -1.560   1.816     -883.00     5972.15    -5143.62     7931.15
  -0.157   0.909  -1.554   1.807     -889.74     6055.30    -5237.88     8055.67
  -0.156   0.902  -1.547   1.797     -896.52     6140.04    -5334.22     8182.77
  -0.155   0.894  -1.541   1.788     -903.32     6226.42    -5432.67     8312.53
  -0.154   0.887  -1.534   1.778     -910.15     6314.47    -5533.30     8445.02
  -0.152   0.879  -1.527   1.769     -917.00     6404.23    -5636.17     8580.29
  -0.151   0.872  -1.521   1.759     -923.87     6495.76    -5741.32     8718.44
  -0.150   0.864  -1.514   1.750     -930.75     6589.09    -5848.84     8859.53
  -0.149   0.857  -1.508   1.740     -937.66     6684.28    -5958.77     9003.65
  -0.148   0.849  -1.501   1.731     -944.58     6781.37    -6071.18     9150.87
  -0.147   0.842  -1.494   1.722     -951.51     6880.41    -6186.15     9301.28
  -0.146   0.835  -1.488   1.712     -958.45     6981.46    -6303.73     9454.97
  -0.145   0.827  -1.481   1.703     -965.39     7084.56    -6424.01     9612.02
  -0.144   0.820  -1.474   1.693     -972.34     7189.78    -6547.06     9772.53
  -0.143   0.812  -1.468   1.684     -979.29     7297.16    -6672.95     9936.59
  -0.142   0.805  -1.461   1.674     -986.23     7406.78    -6801.76    10104.30
  -0.141   0.798  -1.454   1.665     -993.16     7518.69    -6933.57    10275.77
  -0.140   0.790  -1.447   1.655    -1000.08     7632.95    -7068.48    10451.10
  -0.139   0.783  -1.441   1.646    -1006.98     7749.64    -7206.56    10630.40
  -0.138   0.776  -1.434   1.636    -1013.86     7868.81    -7347.92    10813.78
  -0.137   0.769  -1.427   1.627    -1020.71     7990.54    -7492.63    11001.37
  -0.137   0.761  -1.420   1.617    -1027.53     8114.90    -7640.80    11193.27
  -0.136   0.754  -1.413   1.608    -1034.31     8241.97    -7792.53    11389.62
  -0.135   0.747  -1.407   1.598    -1041.05     8371.83    -7947.92    11590.55
  -0.134   0.740  -1.400   1.589    -1047.74     8504.56    -8107.08    11796.19
  -0.133   0.732  -1.393   1.579    -1054.38     8640.24    -8270.11    12006.68
  -0.132   0.725  -1.386   1.570    -1060.95     8778.96    -8437.15    12222.16
  -0.131   0.718  -1.379   1.560    -1067.45     8920.82    -8608.30    12442.80
  -0.130   0.711  -1.372   1.551    -1073.87     9065.90    -8783.68    12668.73
  -0.129   0.704  -1.365   1.541    -1080.21     9214.30    -8963.43    12900.13
  -0.129   0.697  -1.358   1.532    -1086.45     9366.14    -9147.68    13137.16
  -0.128   0.690  -1.351   1.522    -1092.59     9521.50    -9336.57    13380.00
  -0.127   0.682  -1.344   1.513    -1098.62     9680.51    -9530.24    13628.82
  -0.126   0.675  -1.337   1.503    -1104.52     9843.29    -9728.83    13883.82
  -0.125   0.668  -1.330   1.494    -1110.29    10009.94    -9932.50    14145.18
  -0.125   0.661  -1.323   1.484    -1115.91    10180.59   -10141.41    14413.12
  -0.124   0.654  -1.316   1.475    -1121.38    10355.38   -10355.73    14687.83
  -0.123   0.647  -1.309   1.465    -1126.67    10534.44   -10575.62    14969.55
  -0.122   0.640  -1.302   1.456    -1131.78    10717.90   -10801.27    15258.50
  -0.122   0.633  -1.295   1.447    -1136.70    10905.93   -11032.87    15554.92
  -0.121   0.626  -1.288   1.437    -1141.40    11098.66   -11270.60    15859.05
  -0.120   0.619  -1.281   1.428    -1145.87    11296.26   -11514.67    16171.15
  -0.120   0.612  -1.274   1.418    -1150.11    11498.90   -11765.28    16491.49
  -0.119   0.605  -1.266   1.409    -1154.07    11706.75   -12022.66    16820.36
  -0.118   0.598  -1.259   1.399    -1157.76    11920.00   -12287.03    17158.03
  -0.117   0.591  -1.252   1.390    -1161.15    12138.82   -12558.63    17504.82
  -0.117   0.584  -1.245   1.380    -1164.22    12363.43   -12837.71    17861.04
  -0.116   0.577  -1.238   1.371    -1166.95    12594.03   -13124.52    18227.02
  -0.116   0.570  -1.231   1.361    -1169.32    12830.83   -13419.33    18603.12
  -0.115   0.564  -1.223   1.352    -1171.30    13074.07   -13722.43    18989.69
  -0.114   0.557  -1.216   1.342    -1172.87    13323.98   -14034.10    19387.11
  -0.114   0.550  -1.209   1.333    -1174.00    13580.82   -14354.65    19795.78
  -0.113   0.543  -1.202   1.323    -1174.67    13844.84   -14684.40    20216.11
  -0.113   0.536  -1.194   1.314    -1174.84    14116.32   -15023.69    20648.53
  -0.112   0.529  -1.187   1.305    -1174.48    14395.54   -15372.86    21093.50
  -0.111   0.522  -1.180   1.295    -1173.57    14682.82   -15732.29    21551.50
  -0.111   0.516  -1.172   1.286    -1172.07    14978.46   -16102.35    22023.02
  -0.110   0.509  -1.165   1.276    -1169.94    15282.79   -16483.46    22508.60
  -0.110   0.502  -1.158   1.267    -1167.15    15596.18   -16876.02    23008.77
  -0.109   0.495  -1.150   1.257    -1163.66    15918.98   -17280.50    23524.11
  -0.109   0.489  -1.143   1.248    -1159.42    16251.59   -17697.35    24055.24
  -0.108   0.482  -1.136   1.238    -1154.40    16594.41   -18127.07    24602.79
  -0.108   0.475  -1.128   1.229    -1148.55    16947.86   -18570.16    25167.44
  -0.107   0.468  -1.121   1.220    -1141.82    17312.41   -19027.18    25749.89
  -0.107   0.462  -1.114   1.210    -1134.16    17688.52   -19498.69    26350.88
  -0.107   0.455  -1.106   1.201    -1125.52    18076.70   -19985.30    26971.20
  -0.106   0.448  -1.099   1.191    -1115.86    18477.47   -20487.64    27611.69
  -0.106   0.441  -1.091   1.182    -1105.10    18891.40   -21006.38    28273.21
  -0.105   0.435  -1.084   1.173    -1093.20    19319.06   -21542.24    28956.68
  -0.105   0.428  -1.076   1.163    -1080.09    19761.10   -22095.96    29663.09
  -0.105   0.421  -1.069   1.154    -1065.71    20218.15   -22668.34    30393.46
  -0.104   0.415  -1.062   1.145    -1050.00    20690.91   -23260.21    31148.90
  -0.104   0.408  -1.054   1.135    -1032.88    21180.13   -23872.47    31930.55
  -0.104   0.402  -1.047   1.126    -1014.28    21686.57   -24506.07    32739.63
  -0.103   0.395  -1.039   1.116     -994.13    22211.06   -25162.01    33577.47
  -0.103   0.388  -1.032   1.107     -972.36    22754.47   -25841.36    34445.42
  -0.103   0.382  -1.024   1.098     -948.88    23317.73   -26545.24    35344.97
  -0.103   0.375  -1.017   1.088     -923.63    23901.81   -27274.88    36277.66
  -0.102   0.369  -1.009   1.079     -896.50    24507.76   -28031.57    37245.17
  -0.102   0.362  -1.002   1.070     -867.42    25136.67   -28816.67    38249.25
  -0.102   0.355  -0.994   1.061     -836.31    25789.72   -29631.67    39291.79
  -0.102   0.349  -0.986   1.051     -803.08    26468.15   -30478.12    40374.79
  -0.101   0.342  -0.979   1.042     -767.63    27173.29   -31357.73    41500.41
  -0.101   0.336  -0.971   1.033     -729.88    27906.55   -32272.28    42670.93
  -0.101   0.329  -0.964   1.023     -689.75    28669.42   -33223.72    43888.81
  -0.101   0.323  -0.956   1.014     -647.14    29463.51   -34214.13    45156.66
  -0.101   0.316  -0.949   1.005     -601.97    30290.51   -35245.73    46477.30
  -0.101   0.313  -0.945   1.000     -576.38    30755.21   -35825.38    47219.41
